Wavelength (Angstroms) Flux (erg/s/cm2/A)
# start
3400.00 0
3401.50 0
3403.00 0
3404.50 0
3406.00 0
3407.50 0
3409.00 0
3410.50 0
3412.00 0
3413.50 0
3415.00 0
3416.50 0
3418.00 0
3419.50 0
3421.00 0
3422.50 0
3424.00 0
3425.50 0
3427.00 0
3428.50 0
3430.00 0
3431.50 0
3433.00 0
3434.50 0
3436.00 0
3437.50 0
3439.00 0
3440.50 0
3442.00 0
3443.50 0
3445.00 0
3446.50 0
3448.00 0
3449.50 0
3451.00 0
3452.50 0
3454.00 0
3455.50 0
3457.00 0
3458.50 0
3460.00 0
3461.50 0
3463.00 0
3464.50 0
3466.00 0
3467.50 0
3469.00 0
3470.50 0
3472.00 0
3473.50 0
3475.00 0
3476.50 0
3478.00 0
3479.50 0
3481.00 0
3482.50 0
3484.00 0
3485.50 0
3487.00 0
3488.50 0
3490.00 0
3491.50 0
3493.00 0
3494.50 0
3496.00 0
3497.50 0
3499.00 0
3500.50 0
3502.00 0
3503.50 0
3505.00 0
3506.50 0
3508.00 0
3509.50 0
3511.00 0
3512.50 0
3514.00 0
3515.50 0
3517.00 0
3518.50 0
3520.00 0
3521.50 0
3523.00 0
3524.50 0
3526.00 0
3527.50 0
3529.00 0
3530.50 0
3532.00 0
3533.50 0
3535.00 0
3536.50 0
3538.00 0
3539.50 0
3541.00 0
3542.50 0
3544.00 0
3545.50 0
3547.00 0
3548.50 0
3550.00 0
3551.50 0
3553.00 0
3554.50 0
3556.00 0
3557.50 0
3559.00 0
3560.50 0
3562.00 0
3563.50 0
3565.00 0
3566.50 0
3568.00 0
3569.50 0
3571.00 0
3572.50 0
3574.00 0
3575.50 0
3577.00 0
3578.50 0
3580.00 0
3581.50 0
3583.00 0
3584.50 0
3586.00 0
3587.50 0
3589.00 0
3590.50 0
3592.00 0
3593.50 0
3595.00 0
3596.50 0
3598.00 0
3599.50 0
3601.00 0
3602.50 0
3604.00 0
3605.50 0
3607.00 0
3608.50 0
3610.00 0
3611.50 0
3613.00 0
3614.50 0
3616.00 0
3617.50 0
3619.00 0
3620.50 0
3622.00 0
3623.50 0
3625.00 0
3626.50 0
3628.00 0
3629.50 0
3631.00 0
3632.50 0
3634.00 0
3635.50 0
3637.00 0
3638.50 0
3640.00 0
3641.50 0
3643.00 0
3644.50 0
3646.00 0
3647.50 0
3649.00 0
3650.50 0
3652.00 0
3653.50 0
3655.00 0
3656.50 0
3658.00 0
3659.50 0
3661.00 0
3662.50 0
3664.00 0
3665.50 0
3667.00 0
3668.50 0
3670.00 0
3671.50 0
3673.00 0
3674.50 0
3676.00 0
3677.50 0
3679.00 0
3680.50 0
3682.00 0
3683.50 0
3685.00 0
3686.50 0
3688.00 0
3689.50 0
3691.00 0
3692.50 0
3694.00 0
3695.50 0
3697.00 0
3698.50 0
3700.00 0
3701.50 0
3703.00 0
3704.50 0
3706.00 0
3707.50 0
3709.00 0
3710.50 0
3712.00 0
3713.50 0
3715.00 0
3716.50 0
3718.00 0
3719.50 0
3721.00 0
3722.50 0
3724.00 0
3725.50 0
3727.00 0
3728.50 0
3730.00 0
3731.50 0
3733.00 0
3734.50 0
3736.00 0
3737.50 0
3739.00 0
3740.50 0
3742.00 0
3743.50 0
3745.00 0
3746.50 0
3748.00 0
3749.50 0
3751.00 0
3752.50 0
3754.00 0
3755.50 0
3757.00 0
3758.50 0
3760.00 0
3761.50 0
3763.00 0
3764.50 0
3766.00 0
3767.50 0
3769.00 0
3770.50 0
3772.00 0
3773.50 0
3775.00 0
3776.50 0
3778.00 0
3779.50 0
3781.00 0
3782.50 0
3784.00 0
3785.50 0
3787.00 0
3788.50 0
3790.00 0
3791.50 0
3793.00 0
3794.50 0
3796.00 0
3797.50 0
3799.00 0
3800.50 0
3802.00 0
3803.50 8.2552e-17 
3805.00 1.0310e-16 
3806.50 9.2647e-17 
3808.00 7.5929e-17 
3809.50 6.6424e-17 
3811.00 6.5312e-17 
3812.50 5.2482e-17 
3814.00 7.2794e-17 
3815.50 7.6686e-17 
3817.00 4.5117e-17 
3818.50 6.8853e-17 
3820.00 5.8976e-17 
3821.50 3.8826e-17 
3823.00 8.0132e-17 
3824.50 5.7793e-17 
3826.00 6.8965e-17 
3827.50 8.5085e-17 
3829.00 9.9638e-17 
3830.50 7.4052e-17 
3832.00 9.5876e-17 
3833.50 7.0023e-17 
3835.00 5.5731e-17 
3836.50 1.2649e-16 
3838.00 5.1423e-17 
3839.50 4.1969e-17 
3841.00 5.1352e-17 
3842.50 9.9123e-17 
3844.00 7.2364e-17 
3845.50 6.4186e-17 
3847.00 7.9108e-17 
3848.50 7.2727e-17 
3850.00 7.9571e-17 
3851.50 5.9262e-17 
3853.00 7.0421e-17 
3854.50 6.1713e-17 
3856.00 9.2862e-17 
3857.50 7.8144e-17 
3859.00 5.8057e-17 
3860.50 8.1775e-17 
3862.00 9.5868e-17 
3863.50 1.1728e-16 
3865.00 7.4102e-17 
3866.50 6.8964e-17 
3868.00 7.0111e-17 
3869.50 5.2937e-17 
3871.00 8.8637e-17 
3872.50 6.2431e-17 
3874.00 3.8240e-17 
3875.50 7.0900e-17 
3877.00 6.8589e-17 
3878.50 8.5099e-17 
3880.00 6.5808e-17 
3881.50 1.0017e-16 
3883.00 7.1963e-17 
3884.50 5.8396e-17 
3886.00 6.5343e-17 
3887.50 6.7635e-17 
3889.00 5.7972e-17 
3890.50 3.8419e-17 
3892.00 4.6401e-17 
3893.50 7.5780e-17 
3895.00 1.0075e-16 
3896.50 6.1310e-17 
3898.00 6.3776e-17 
3899.50 7.2938e-17 
3901.00 8.3321e-17 
3902.50 6.7704e-17 
3904.00 7.9289e-17 
3905.50 9.1687e-17 
3907.00 5.2064e-17 
3908.50 7.2522e-17 
3910.00 8.3169e-17 
3911.50 5.4648e-17 
3913.00 7.8772e-17 
3914.50 6.5281e-17 
3916.00 9.3039e-17 
3917.50 6.2140e-17 
3919.00 4.9189e-17 
3920.50 8.5252e-17 
3922.00 6.8839e-17 
3923.50 5.0455e-17 
3925.00 6.1031e-17 
3926.50 6.8170e-17 
3928.00 5.7517e-17 
3929.50 4.8833e-17 
3931.00 7.9672e-17 
3932.50 8.6424e-17 
3934.00 6.2796e-17 
3935.50 5.3315e-17 
3937.00 6.5621e-17 
3938.50 6.5424e-17 
3940.00 7.9024e-17 
3941.50 7.0285e-17 
3943.00 5.9865e-17 
3944.50 8.1591e-17 
3946.00 7.9930e-17 
3947.50 6.7786e-17 
3949.00 6.4209e-17 
3950.50 8.4266e-17 
3952.00 7.9640e-17 
3953.50 5.8461e-17 
3955.00 5.9402e-17 
3956.50 7.6955e-17 
3958.00 7.4788e-17 
3959.50 9.1622e-17 
3961.00 7.8094e-17 
3962.50 9.5717e-17 
3964.00 7.2671e-17 
3965.50 7.9189e-17 
3967.00 7.9540e-17 
3968.50 7.8711e-17 
3970.00 6.9482e-17 
3971.50 7.9184e-17 
3973.00 8.6919e-17 
3974.50 6.2134e-17 
3976.00 8.9377e-17 
3977.50 5.1972e-17 
3979.00 6.9480e-17 
3980.50 8.1711e-17 
3982.00 5.6881e-17 
3983.50 5.7233e-17 
3985.00 7.8696e-17 
3986.50 7.9694e-17 
3988.00 8.1227e-17 
3989.50 7.4127e-17 
3991.00 8.1961e-17 
3992.50 6.7910e-17 
3994.00 6.9505e-17 
3995.50 7.7828e-17 
3997.00 4.8269e-17 
3998.50 6.7447e-17 
4000.00 8.0966e-17 
4001.50 8.3582e-17 
4003.00 8.3009e-17 
4004.50 8.6391e-17 
4006.00 7.4482e-17 
4007.50 6.7970e-17 
4009.00 8.2950e-17 
4010.50 5.8612e-17 
4012.00 6.9036e-17 
4013.50 8.0839e-17 
4015.00 7.5407e-17 
4016.50 6.8375e-17 
4018.00 8.7484e-17 
4019.50 4.9407e-17 
4021.00 8.1188e-17 
4022.50 6.3082e-17 
4024.00 7.6763e-17 
4025.50 8.1640e-17 
4027.00 7.9124e-17 
4028.50 7.3793e-17 
4030.00 7.4937e-17 
4031.50 6.7301e-17 
4033.00 7.3511e-17 
4034.50 9.0569e-17 
4036.00 8.4716e-17 
4037.50 8.4966e-17 
4039.00 8.4561e-17 
4040.50 7.3221e-17 
4042.00 5.4520e-17 
4043.50 6.8927e-17 
4045.00 9.1294e-17 
4046.50 9.5301e-17 
4048.00 8.8134e-17 
4049.50 7.2475e-17 
4051.00 8.3691e-17 
4052.50 8.1670e-17 
4054.00 6.8449e-17 
4055.50 6.3924e-17 
4057.00 8.2128e-17 
4058.50 8.7649e-17 
4060.00 8.8148e-17 
4061.50 7.2966e-17 
4063.00 7.5495e-17 
4064.50 7.3875e-17 
4066.00 8.3459e-17 
4067.50 7.4776e-17 
4069.00 7.4302e-17 
4070.50 9.9054e-17 
4072.00 8.8327e-17 
4073.50 8.3574e-17 
4075.00 6.7298e-17 
4076.50 8.1882e-17 
4078.00 6.4768e-17 
4079.50 7.9719e-17 
4081.00 9.5647e-17 
4082.50 7.8964e-17 
4084.00 7.4464e-17 
4085.50 6.7066e-17 
4087.00 8.5715e-17 
4088.50 7.5771e-17 
4090.00 7.3368e-17 
4091.50 8.8940e-17 
4093.00 8.8639e-17 
4094.50 7.6642e-17 
4096.00 5.9014e-17 
4097.50 7.5716e-17 
4099.00 7.7863e-17 
4100.50 7.9566e-17 
4102.00 7.6664e-17 
4103.50 6.1519e-17 
4105.00 7.3626e-17 
4106.50 7.1866e-17 
4108.00 6.7262e-17 
4109.50 6.1726e-17 
4111.00 7.3806e-17 
4112.50 7.9327e-17 
4114.00 7.2004e-17 
4115.50 8.2127e-17 
4117.00 7.1057e-17 
4118.50 5.2416e-17 
4120.00 5.5755e-17 
4121.50 5.4919e-17 
4123.00 6.8614e-17 
4124.50 8.2713e-17 
4126.00 6.6722e-17 
4127.50 6.6223e-17 
4129.00 1.0071e-16 
4130.50 7.2871e-17 
4132.00 5.9607e-17 
4133.50 8.5018e-17 
4135.00 5.7560e-17 
4136.50 6.6160e-17 
4138.00 6.8306e-17 
4139.50 8.1025e-17 
4141.00 6.2326e-17 
4142.50 4.9187e-17 
4144.00 6.2009e-17 
4145.50 7.2564e-17 
4147.00 6.8161e-17 
4148.50 6.6909e-17 
4150.00 9.5037e-17 
4151.50 8.0157e-17 
4153.00 8.7324e-17 
4154.50 7.7177e-17 
4156.00 6.0991e-17 
4157.50 7.2129e-17 
4159.00 5.9004e-17 
4160.50 7.1074e-17 
4162.00 6.4430e-17 
4163.50 8.1099e-17 
4165.00 7.1123e-17 
4166.50 6.7647e-17 
4168.00 9.6510e-17 
4169.50 8.3577e-17 
4171.00 7.9540e-17 
4172.50 7.9842e-17 
4174.00 8.5757e-17 
4175.50 6.6661e-17 
4177.00 6.3925e-17 
4178.50 7.2573e-17 
4180.00 7.3700e-17 
4181.50 6.5939e-17 
4183.00 5.7478e-17 
4184.50 5.8814e-17 
4186.00 5.9384e-17 
4187.50 6.7992e-17 
4189.00 7.3102e-17 
4190.50 7.6178e-17 
4192.00 6.4694e-17 
4193.50 6.7706e-17 
4195.00 6.9554e-17 
4196.50 7.5031e-17 
4198.00 6.7418e-17 
4199.50 5.7918e-17 
4201.00 6.3032e-17 
4202.50 6.2941e-17 
4204.00 6.9038e-17 
4205.50 7.6512e-17 
4207.00 6.4716e-17 
4208.50 6.9451e-17 
4210.00 7.6935e-17 
4211.50 7.3904e-17 
4213.00 7.4572e-17 
4214.50 6.6491e-17 
4216.00 5.0515e-17 
4217.50 4.7560e-17 
4219.00 6.4852e-17 
4220.50 5.9543e-17 
4222.00 7.2270e-17 
4223.50 6.6644e-17 
4225.00 6.5528e-17 
4226.50 5.4869e-17 
4228.00 7.2652e-17 
4229.50 5.1754e-17 
4231.00 5.4193e-17 
4232.50 5.5861e-17 
4234.00 5.9137e-17 
4235.50 5.8027e-17 
4237.00 6.2853e-17 
4238.50 7.1001e-17 
4240.00 6.8332e-17 
4241.50 7.5247e-17 
4243.00 6.4840e-17 
4244.50 1.1049e-16 
4246.00 7.9299e-17 
4247.50 6.5352e-17 
4249.00 7.0450e-17 
4250.50 5.8865e-17 
4252.00 6.4898e-17 
4253.50 8.3273e-17 
4255.00 6.4134e-17 
4256.50 5.5499e-17 
4258.00 7.0156e-17 
4259.50 7.4309e-17 
4261.00 5.9075e-17 
4262.50 6.6695e-17 
4264.00 7.0199e-17 
4265.50 5.4569e-17 
4267.00 7.4493e-17 
4268.50 5.5793e-17 
4270.00 5.7317e-17 
4271.50 7.1889e-17 
4273.00 6.5385e-17 
4274.50 7.2387e-17 
4276.00 5.2554e-17 
4277.50 5.7071e-17 
4279.00 7.0870e-17 
4280.50 6.6905e-17 
4282.00 5.3961e-17 
4283.50 5.5322e-17 
4285.00 3.7212e-17 
4286.50 6.9641e-17 
4288.00 6.5655e-17 
4289.50 7.5063e-17 
4291.00 6.2327e-17 
4292.50 5.7842e-17 
4294.00 4.9924e-17 
4295.50 7.4485e-17 
4297.00 6.9844e-17 
4298.50 6.6749e-17 
4300.00 7.1278e-17 
4301.50 5.5003e-17 
4303.00 6.1272e-17 
4304.50 6.2685e-17 
4306.00 6.6478e-17 
4307.50 5.8127e-17 
4309.00 4.5126e-17 
4310.50 6.6629e-17 
4312.00 6.2934e-17 
4313.50 7.1647e-17 
4315.00 6.4258e-17 
4316.50 4.7596e-17 
4318.00 6.2795e-17 
4319.50 5.3256e-17 
4321.00 6.2104e-17 
4322.50 5.3414e-17 
4324.00 5.5599e-17 
4325.50 4.3844e-17 
4327.00 5.4803e-17 
4328.50 6.0248e-17 
4330.00 5.9827e-17 
4331.50 5.9880e-17 
4333.00 6.1989e-17 
4334.50 5.9656e-17 
4336.00 4.8655e-17 
4337.50 5.2596e-17 
4339.00 5.0539e-17 
4340.50 6.1372e-17 
4342.00 5.3389e-17 
4343.50 7.1483e-17 
4345.00 6.7810e-17 
4346.50 4.8274e-17 
4348.00 5.9510e-17 
4349.50 5.7105e-17 
4351.00 7.1791e-17 
4352.50 5.9953e-17 
4354.00 5.5924e-17 
4355.50 5.3122e-17 
4357.00 6.9204e-17 
4358.50 8.1377e-17 
4360.00 6.9529e-17 
4361.50 5.7233e-17 
4363.00 6.5689e-17 
4364.50 6.5056e-17 
4366.00 5.6632e-17 
4367.50 6.7638e-17 
4369.00 5.2767e-17 
4370.50 6.4018e-17 
4372.00 6.6036e-17 
4373.50 4.4625e-17 
4375.00 6.1764e-17 
4376.50 8.8338e-17 
4378.00 6.3726e-17 
4379.50 7.0631e-17 
4381.00 4.6209e-17 
4382.50 4.1108e-17 
4384.00 4.2948e-17 
4385.50 6.7657e-17 
4387.00 5.7645e-17 
4388.50 6.3759e-17 
4390.00 6.4586e-17 
4391.50 7.1276e-17 
4393.00 5.5762e-17 
4394.50 4.5042e-17 
4396.00 5.9928e-17 
4397.50 6.2853e-17 
4399.00 5.4270e-17 
4400.50 5.3082e-17 
4402.00 5.1603e-17 
4403.50 5.9194e-17 
4405.00 7.2539e-17 
4406.50 5.8387e-17 
4408.00 5.7920e-17 
4409.50 6.0739e-17 
4411.00 5.3546e-17 
4412.50 6.3229e-17 
4414.00 7.0860e-17 
4415.50 7.0129e-17 
4417.00 7.8259e-17 
4418.50 7.5331e-17 
4420.00 5.2824e-17 
4421.50 7.0528e-17 
4423.00 6.4852e-17 
4424.50 5.8036e-17 
4426.00 6.2748e-17 
4427.50 7.1848e-17 
4429.00 6.9809e-17 
4430.50 6.3429e-17 
4432.00 5.5496e-17 
4433.50 6.4419e-17 
4435.00 6.7441e-17 
4436.50 5.4206e-17 
4438.00 6.2391e-17 
4439.50 6.6072e-17 
4441.00 6.7956e-17 
4442.50 6.5836e-17 
4444.00 5.6887e-17 
4445.50 6.8537e-17 
4447.00 7.0117e-17 
4448.50 5.4922e-17 
4450.00 7.3730e-17 
4451.50 6.4956e-17 
4453.00 6.4925e-17 
4454.50 7.3210e-17 
4456.00 6.7338e-17 
4457.50 6.2078e-17 
4459.00 6.2911e-17 
4460.50 6.5593e-17 
4462.00 7.6957e-17 
4463.50 7.4935e-17 
4465.00 6.8480e-17 
4466.50 5.5704e-17 
4468.00 6.5849e-17 
4469.50 5.9142e-17 
4471.00 8.0578e-17 
4472.50 7.0800e-17 
4474.00 8.7269e-17 
4475.50 7.7276e-17 
4477.00 7.6627e-17 
4478.50 8.0093e-17 
4480.00 7.3928e-17 
4481.50 7.0889e-17 
4483.00 7.6703e-17 
4484.50 9.1756e-17 
4486.00 8.2605e-17 
4487.50 8.8874e-17 
4489.00 7.9480e-17 
4490.50 6.9761e-17 
4492.00 7.4382e-17 
4493.50 7.0234e-17 
4495.00 8.0854e-17 
4496.50 7.9714e-17 
4498.00 7.3602e-17 
4499.50 7.2848e-17 
4501.00 8.7304e-17 
4502.50 8.5067e-17 
4504.00 8.3818e-17 
4505.50 9.9455e-17 
4507.00 8.6544e-17 
4508.50 7.6962e-17 
4510.00 8.0879e-17 
4511.50 8.0914e-17 
4513.00 9.7246e-17 
4514.50 1.1305e-16 
4516.00 1.0839e-16 
4517.50 1.1640e-16 
4519.00 1.1356e-16 
4520.50 1.0496e-16 
4522.00 1.1001e-16 
4523.50 1.2547e-16 
4525.00 1.0607e-16 
4526.50 1.3118e-16 
4528.00 1.3282e-16 
4529.50 1.4587e-16 
4531.00 1.4047e-16 
4532.50 1.4248e-16 
4534.00 1.3356e-16 
4535.50 1.4607e-16 
4537.00 1.6944e-16 
4538.50 1.5829e-16 
4540.00 1.4693e-16 
4541.50 1.5325e-16 
4543.00 1.5664e-16 
4544.50 1.5556e-16 
4546.00 1.6076e-16 
4547.50 1.8096e-16 
4549.00 1.7845e-16 
4550.50 1.6989e-16 
4552.00 1.8576e-16 
4553.50 1.7497e-16 
4555.00 1.6239e-16 
4556.50 1.6901e-16 
4558.00 1.7011e-16 
4559.50 1.5835e-16 
4561.00 1.5869e-16 
4562.50 1.5800e-16 
4564.00 1.5530e-16 
4565.50 1.5502e-16 
4567.00 1.5761e-16 
4568.50 1.3933e-16 
4570.00 1.3592e-16 
4571.50 1.3155e-16 
4573.00 1.3104e-16 
4574.50 1.3317e-16 
4576.00 1.3669e-16 
4577.50 1.2222e-16 
4579.00 1.1553e-16 
4580.50 1.3125e-16 
4582.00 1.2836e-16 
4583.50 1.1618e-16 
4585.00 1.0754e-16 
4586.50 1.2410e-16 
4588.00 1.0965e-16 
4589.50 1.1792e-16 
4591.00 1.1454e-16 
4592.50 1.2389e-16 
4594.00 1.1148e-16 
4595.50 1.0552e-16 
4597.00 9.7124e-17 
4598.50 1.0271e-16 
4600.00 1.0410e-16 
4601.50 9.5471e-17 
4603.00 9.6572e-17 
4604.50 8.4580e-17 
4606.00 9.7097e-17 
4607.50 9.2528e-17 
4609.00 7.7992e-17 
4610.50 8.0413e-17 
4612.00 7.9848e-17 
4613.50 8.7284e-17 
4615.00 7.7592e-17 
4616.50 9.8619e-17 
4618.00 7.4171e-17 
4619.50 8.6813e-17 
4621.00 7.9379e-17 
4622.50 8.4607e-17 
4624.00 6.8394e-17 
4625.50 6.6538e-17 
4627.00 6.4222e-17 
4628.50 7.6652e-17 
4630.00 7.7825e-17 
4631.50 7.8845e-17 
4633.00 6.3402e-17 
4634.50 6.5091e-17 
4636.00 6.9160e-17 
4637.50 6.1286e-17 
4639.00 6.2601e-17 
4640.50 5.7476e-17 
4642.00 5.9907e-17 
4643.50 6.1659e-17 
4645.00 6.9151e-17 
4646.50 5.7600e-17 
4648.00 6.1297e-17 
4649.50 6.1854e-17 
4651.00 5.5275e-17 
4652.50 6.8244e-17 
4654.00 6.5493e-17 
4655.50 5.6629e-17 
4657.00 6.5575e-17 
4658.50 7.1652e-17 
4660.00 6.4661e-17 
4661.50 4.0473e-17 
4663.00 5.7763e-17 
4664.50 6.2697e-17 
4666.00 6.1624e-17 
4667.50 5.8683e-17 
4669.00 5.7695e-17 
4670.50 6.6099e-17 
4672.00 5.9045e-17 
4673.50 5.3044e-17 
4675.00 5.5710e-17 
4676.50 5.3341e-17 
4678.00 5.2873e-17 
4679.50 5.2315e-17 
4681.00 5.6487e-17 
4682.50 5.0406e-17 
4684.00 5.2654e-17 
4685.50 5.7628e-17 
4687.00 5.5566e-17 
4688.50 5.9045e-17 
4690.00 5.8401e-17 
4691.50 5.0768e-17 
4693.00 5.9755e-17 
4694.50 5.3984e-17 
4696.00 6.1096e-17 
4697.50 6.0973e-17 
4699.00 6.1591e-17 
4700.50 5.2125e-17 
4702.00 4.2550e-17 
4703.50 5.7439e-17 
4705.00 6.3307e-17 
4706.50 6.6012e-17 
4708.00 6.9457e-17 
4709.50 5.6306e-17 
4711.00 5.3213e-17 
4712.50 5.3409e-17 
4714.00 5.0199e-17 
4715.50 4.9990e-17 
4717.00 6.0230e-17 
4718.50 5.5860e-17 
4720.00 6.2430e-17 
4721.50 6.4302e-17 
4723.00 4.5259e-17 
4724.50 5.4291e-17 
4726.00 5.0380e-17 
4727.50 5.2640e-17 
4729.00 5.1929e-17 
4730.50 4.9731e-17 
4732.00 5.4397e-17 
4733.50 4.7647e-17 
4735.00 5.3204e-17 
4736.50 6.1185e-17 
4738.00 4.5959e-17 
4739.50 5.4662e-17 
4741.00 5.1722e-17 
4742.50 6.2750e-17 
4744.00 4.9350e-17 
4745.50 5.2485e-17 
4747.00 3.9513e-17 
4748.50 5.4852e-17 
4750.00 6.0368e-17 
4751.50 5.1403e-17 
4753.00 4.8347e-17 
4754.50 4.6550e-17 
4756.00 4.8499e-17 
4757.50 5.3574e-17 
4759.00 5.3480e-17 
4760.50 4.8195e-17 
4762.00 5.1325e-17 
4763.50 4.1583e-17 
4765.00 5.9898e-17 
4766.50 5.4794e-17 
4768.00 5.2473e-17 
4769.50 5.3978e-17 
4771.00 5.4806e-17 
4772.50 4.0607e-17 
4774.00 4.7674e-17 
4775.50 4.8921e-17 
4777.00 4.4745e-17 
4778.50 4.3906e-17 
4780.00 4.7595e-17 
4781.50 6.4700e-17 
4783.00 5.8407e-17 
4784.50 5.1008e-17 
4786.00 5.4971e-17 
4787.50 4.8677e-17 
4789.00 6.0570e-17 
4790.50 5.1518e-17 
4792.00 5.8301e-17 
4793.50 5.4552e-17 
4795.00 5.3504e-17 
4796.50 5.1988e-17 
4798.00 6.0495e-17 
4799.50 5.3525e-17 
4801.00 5.0856e-17 
4802.50 5.4377e-17 
4804.00 5.5068e-17 
4805.50 5.9667e-17 
4807.00 4.9239e-17 
4808.50 5.9329e-17 
4810.00 5.0321e-17 
4811.50 5.0874e-17 
4813.00 4.5313e-17 
4814.50 5.7919e-17 
4816.00 5.7241e-17 
4817.50 5.0307e-17 
4819.00 4.7353e-17 
4820.50 4.9457e-17 
4822.00 5.0480e-17 
4823.50 5.4630e-17 
4825.00 4.3818e-17 
4826.50 4.4290e-17 
4828.00 4.0875e-17 
4829.50 5.5811e-17 
4831.00 5.4039e-17 
4832.50 5.3512e-17 
4834.00 5.3118e-17 
4835.50 5.5982e-17 
4837.00 6.4219e-17 
4838.50 5.4173e-17 
4840.00 5.7207e-17 
4841.50 6.0030e-17 
4843.00 5.4377e-17 
4844.50 5.2391e-17 
4846.00 5.4040e-17 
4847.50 5.3003e-17 
4849.00 4.9564e-17 
4850.50 4.4983e-17 
4852.00 5.7100e-17 
4853.50 4.3962e-17 
4855.00 4.4536e-17 
4856.50 4.2114e-17 
4858.00 4.0450e-17 
4859.50 5.1826e-17 
4861.00 4.2871e-17 
4862.50 5.7252e-17 
4864.00 5.2585e-17 
4865.50 4.7932e-17 
4867.00 5.0450e-17 
4868.50 5.9186e-17 
4870.00 5.7499e-17 
4871.50 4.5507e-17 
4873.00 5.4657e-17 
4874.50 5.3079e-17 
4876.00 4.2521e-17 
4877.50 4.6999e-17 
4879.00 4.2000e-17 
4880.50 4.8053e-17 
4882.00 5.0420e-17 
4883.50 4.5389e-17 
4885.00 4.0951e-17 
4886.50 4.8772e-17 
4888.00 4.0286e-17 
4889.50 4.6259e-17 
4891.00 4.6101e-17 
4892.50 5.5775e-17 
4894.00 5.2287e-17 
4895.50 4.7996e-17 
4897.00 5.4134e-17 
4898.50 4.3038e-17 
4900.00 3.1627e-17 
4901.50 4.9017e-17 
4903.00 5.5787e-17 
4904.50 4.3080e-17 
4906.00 4.0831e-17 
4907.50 4.0838e-17 
4909.00 4.1222e-17 
4910.50 3.5253e-17 
4912.00 4.3351e-17 
4913.50 4.2570e-17 
4915.00 4.5041e-17 
4916.50 4.6204e-17 
4918.00 3.9660e-17 
4919.50 3.9083e-17 
4921.00 4.9109e-17 
4922.50 4.3508e-17 
4924.00 4.5507e-17 
4925.50 4.7028e-17 
4927.00 4.4490e-17 
4928.50 3.9262e-17 
4930.00 4.6767e-17 
4931.50 4.8603e-17 
4933.00 4.6282e-17 
4934.50 2.5306e-17 
4936.00 3.4558e-17 
4937.50 4.0157e-17 
4939.00 5.3181e-17 
4940.50 5.3236e-17 
4942.00 5.1492e-17 
4943.50 3.9438e-17 
4945.00 3.2907e-17 
4946.50 3.0371e-17 
4948.00 4.1502e-17 
4949.50 3.5367e-17 
4951.00 4.0930e-17 
4952.50 4.8998e-17 
4954.00 4.7268e-17 
4955.50 5.6457e-17 
4957.00 5.3299e-17 
4958.50 4.1866e-17 
4960.00 3.9400e-17 
4961.50 4.3744e-17 
4963.00 3.7818e-17 
4964.50 3.8897e-17 
4966.00 5.0164e-17 
4967.50 3.4215e-17 
4969.00 4.7161e-17 
4970.50 4.1429e-17 
4972.00 3.7250e-17 
4973.50 3.7658e-17 
4975.00 3.3682e-17 
4976.50 3.6838e-17 
4978.00 3.9361e-17 
4979.50 4.1154e-17 
4981.00 4.4939e-17 
4982.50 4.4063e-17 
4984.00 3.7032e-17 
4985.50 4.1280e-17 
4987.00 3.9140e-17 
4988.50 3.9367e-17 
4990.00 4.0785e-17 
4991.50 5.8986e-17 
4993.00 4.4774e-17 
4994.50 3.8933e-17 
4996.00 3.7034e-17 
4997.50 4.4134e-17 
4999.00 4.3217e-17 
5000.50 4.3268e-17 
5002.00 4.4675e-17 
5003.50 3.8208e-17 
5005.00 4.3729e-17 
5006.50 3.9357e-17 
5008.00 3.8629e-17 
5009.50 3.6409e-17 
5011.00 3.8951e-17 
5012.50 4.6719e-17 
5014.00 4.7983e-17 
5015.50 4.4477e-17 
5017.00 3.7997e-17 
5018.50 4.6458e-17 
5020.00 3.7553e-17 
5021.50 3.8511e-17 
5023.00 5.1810e-17 
5024.50 4.2269e-17 
5026.00 4.6178e-17 
5027.50 3.7536e-17 
5029.00 4.2894e-17 
5030.50 5.3467e-17 
5032.00 4.5726e-17 
5033.50 3.9630e-17 
5035.00 4.7624e-17 
5036.50 4.8164e-17 
5038.00 4.5098e-17 
5039.50 4.6790e-17 
5041.00 4.7297e-17 
5042.50 4.5097e-17 
5044.00 4.0607e-17 
5045.50 3.6455e-17 
5047.00 4.1025e-17 
5048.50 3.9004e-17 
5050.00 3.0717e-17 
5051.50 5.4255e-17 
5053.00 4.3918e-17 
5054.50 4.1540e-17 
5056.00 3.8992e-17 
5057.50 4.3631e-17 
5059.00 4.4568e-17 
5060.50 5.0455e-17 
5062.00 4.9121e-17 
5063.50 4.7188e-17 
5065.00 4.8282e-17 
5066.50 4.2724e-17 
5068.00 4.6049e-17 
5069.50 4.7084e-17 
5071.00 4.8104e-17 
5072.50 5.6273e-17 
5074.00 5.0624e-17 
5075.50 4.8781e-17 
5077.00 4.4029e-17 
5078.50 4.9426e-17 
5080.00 4.9677e-17 
5081.50 5.1132e-17 
5083.00 4.7300e-17 
5084.50 4.9131e-17 
5086.00 4.4487e-17 
5087.50 4.8504e-17 
5089.00 4.9515e-17 
5090.50 4.9592e-17 
5092.00 4.9975e-17 
5093.50 4.7035e-17 
5095.00 4.0741e-17 
5096.50 4.7293e-17 
5098.00 5.3753e-17 
5099.50 5.1839e-17 
5101.00 4.8815e-17 
5102.50 4.9470e-17 
5104.00 4.8139e-17 
5105.50 5.1764e-17 
5107.00 5.6637e-17 
5108.50 4.6948e-17 
5110.00 4.2464e-17 
5111.50 4.9525e-17 
5113.00 5.3673e-17 
5114.50 4.2324e-17 
5116.00 4.6633e-17 
5117.50 5.6988e-17 
5119.00 5.2475e-17 
5120.50 4.4903e-17 
5122.00 4.5863e-17 
5123.50 4.9403e-17 
5125.00 5.0264e-17 
5126.50 5.1647e-17 
5128.00 4.6519e-17 
5129.50 3.5288e-17 
5131.00 4.3841e-17 
5132.50 3.9285e-17 
5134.00 5.5290e-17 
5135.50 4.8678e-17 
5137.00 3.9925e-17 
5138.50 4.3406e-17 
5140.00 4.6792e-17 
5141.50 4.3322e-17 
5143.00 4.8827e-17 
5144.50 5.7394e-17 
5146.00 5.1629e-17 
5147.50 4.3638e-17 
5149.00 3.8107e-17 
5150.50 4.7655e-17 
5152.00 4.4645e-17 
5153.50 4.8803e-17 
5155.00 5.4953e-17 
5156.50 5.7767e-17 
5158.00 4.7839e-17 
5159.50 4.9952e-17 
5161.00 4.0221e-17 
5162.50 3.7931e-17 
5164.00 4.5304e-17 
5165.50 4.6173e-17 
5167.00 4.3770e-17 
5168.50 4.6456e-17 
5170.00 4.7062e-17 
5171.50 5.0902e-17 
5173.00 5.5492e-17 
5174.50 4.5356e-17 
5176.00 4.2292e-17 
5177.50 6.5490e-17 
5179.00 6.0777e-17 
5180.50 4.5667e-17 
5182.00 4.7657e-17 
5183.50 4.7843e-17 
5185.00 5.9683e-17 
5186.50 6.0520e-17 
5188.00 3.8815e-17 
5189.50 4.7512e-17 
5191.00 5.4029e-17 
5192.50 5.9453e-17 
5194.00 4.3231e-17 
5195.50 4.8434e-17 
5197.00 5.3787e-17 
5198.50 4.5304e-17 
5200.00 5.3535e-17 
5201.50 4.3639e-17 
5203.00 4.7506e-17 
5204.50 4.2617e-17 
5206.00 3.8176e-17 
5207.50 3.5330e-17 
5209.00 5.1302e-17 
5210.50 5.6371e-17 
5212.00 5.6858e-17 
5213.50 5.0302e-17 
5215.00 4.5667e-17 
5216.50 4.7544e-17 
5218.00 4.1195e-17 
5219.50 5.1400e-17 
5221.00 4.2218e-17 
5222.50 4.0383e-17 
5224.00 4.8887e-17 
5225.50 4.6722e-17 
5227.00 4.5831e-17 
5228.50 5.3459e-17 
5230.00 5.6527e-17 
5231.50 3.8479e-17 
5233.00 3.6307e-17 
5234.50 5.0033e-17 
5236.00 5.4865e-17 
5237.50 4.8929e-17 
5239.00 5.5401e-17 
5240.50 5.8928e-17 
5242.00 3.6766e-17 
5243.50 4.7947e-17 
5245.00 4.1307e-17 
5246.50 4.3169e-17 
5248.00 5.9997e-17 
5249.50 4.9671e-17 
5251.00 4.0103e-17 
5252.50 4.0690e-17 
5254.00 4.9334e-17 
5255.50 5.0735e-17 
5257.00 4.9082e-17 
5258.50 5.2766e-17 
5260.00 3.9750e-17 
5261.50 5.9813e-17 
5263.00 4.4279e-17 
5264.50 4.6786e-17 
5266.00 5.1906e-17 
5267.50 4.5503e-17 
5269.00 5.4347e-17 
5270.50 4.1533e-17 
5272.00 3.5986e-17 
5273.50 4.6023e-17 
5275.00 3.3344e-17 
5276.50 4.3425e-17 
5278.00 4.0174e-17 
5279.50 5.1245e-17 
5281.00 4.4815e-17 
5282.50 4.4030e-17 
5284.00 5.0325e-17 
5285.50 4.3466e-17 
5287.00 5.2797e-17 
5288.50 4.0956e-17 
5290.00 4.3930e-17 
5291.50 4.5455e-17 
5293.00 5.0335e-17 
5294.50 4.2452e-17 
5296.00 4.5041e-17 
5297.50 5.3287e-17 
5299.00 5.4658e-17 
5300.50 4.7078e-17 
5302.00 4.1703e-17 
5303.50 4.5495e-17 
5305.00 3.9720e-17 
5306.50 3.8575e-17 
5308.00 4.0421e-17 
5309.50 4.7424e-17 
5311.00 4.9759e-17 
5312.50 4.4723e-17 
5314.00 4.7490e-17 
5315.50 4.8176e-17 
5317.00 5.1454e-17 
5318.50 5.3107e-17 
5320.00 5.0354e-17 
5321.50 4.9628e-17 
5323.00 4.1044e-17 
5324.50 4.7471e-17 
5326.00 4.9007e-17 
5327.50 4.8962e-17 
5329.00 5.0366e-17 
5330.50 4.6216e-17 
5332.00 5.7714e-17 
5333.50 5.7746e-17 
5335.00 5.2476e-17 
5336.50 4.4996e-17 
5338.00 4.9970e-17 
5339.50 4.8844e-17 
5341.00 4.5963e-17 
5342.50 4.4618e-17 
5344.00 4.1393e-17 
5345.50 5.2602e-17 
5347.00 5.5011e-17 
5348.50 4.8153e-17 
5350.00 4.1348e-17 
5351.50 5.2438e-17 
5353.00 5.3595e-17 
5354.50 4.4844e-17 
5356.00 5.0996e-17 
5357.50 4.3797e-17 
5359.00 4.2292e-17 
5360.50 3.5265e-17 
5362.00 4.4016e-17 
5363.50 4.6724e-17 
5365.00 4.6875e-17 
5366.50 4.2847e-17 
5368.00 4.4582e-17 
5369.50 5.0466e-17 
5371.00 4.9691e-17 
5372.50 3.1969e-17 
5374.00 4.1082e-17 
5375.50 4.6814e-17 
5377.00 4.3154e-17 
5378.50 3.8150e-17 
5380.00 3.9054e-17 
5381.50 4.3752e-17 
5383.00 4.9685e-17 
5384.50 3.3375e-17 
5386.00 3.5454e-17 
5387.50 4.1759e-17 
5389.00 4.3150e-17 
5390.50 4.4594e-17 
5392.00 4.6745e-17 
5393.50 4.1900e-17 
5395.00 3.0957e-17 
5396.50 5.1245e-17 
5398.00 4.6551e-17 
5399.50 5.1765e-17 
5401.00 5.4226e-17 
5402.50 4.5307e-17 
5404.00 4.6325e-17 
5405.50 4.3105e-17 
5407.00 4.2036e-17 
5408.50 4.3389e-17 
5410.00 4.0788e-17 
5411.50 4.4641e-17 
5413.00 4.6297e-17 
5414.50 3.6343e-17 
5416.00 3.9054e-17 
5417.50 4.2005e-17 
5419.00 4.0669e-17 
5420.50 3.3604e-17 
5422.00 4.1388e-17 
5423.50 4.1657e-17 
5425.00 3.4524e-17 
5426.50 4.0950e-17 
5428.00 4.5860e-17 
5429.50 4.2156e-17 
5431.00 3.6909e-17 
5432.50 4.3815e-17 
5434.00 4.4377e-17 
5435.50 4.4783e-17 
5437.00 4.6981e-17 
5438.50 3.9006e-17 
5440.00 4.0748e-17 
5441.50 5.1145e-17 
5443.00 5.3109e-17 
5444.50 5.7193e-17 
5446.00 5.0354e-17 
5447.50 4.4028e-17 
5449.00 4.0900e-17 
5450.50 5.2877e-17 
5452.00 3.7360e-17 
5453.50 4.4479e-17 
5455.00 5.0190e-17 
5456.50 3.4865e-17 
5458.00 3.1325e-17 
5459.50 4.9559e-17 
5461.00 6.3226e-17 
5462.50 3.2093e-17 
5464.00 4.5426e-17 
5465.50 3.7103e-17 
5467.00 4.3487e-17 
5468.50 4.1542e-17 
5470.00 4.0721e-17 
5471.50 3.6617e-17 
5473.00 4.0599e-17 
5474.50 3.7483e-17 
5476.00 4.7823e-17 
5477.50 4.9347e-17 
5479.00 4.6256e-17 
5480.50 4.5475e-17 
5482.00 5.1582e-17 
5483.50 3.2085e-17 
5485.00 2.3226e-17 
5486.50 3.5117e-17 
5488.00 3.8916e-17 
5489.50 3.8575e-17 
5491.00 4.9577e-17 
5492.50 4.5503e-17 
5494.00 4.8170e-17 
5495.50 4.3152e-17 
5497.00 4.3432e-17 
5498.50 3.7141e-17 
5500.00 3.4428e-17 
5501.50 5.5038e-17 
5503.00 4.7815e-17 
5504.50 4.9419e-17 
5506.00 4.1594e-17 
5507.50 3.9443e-17 
5509.00 3.2229e-17 
5510.50 3.4545e-17 
5512.00 3.6954e-17 
5513.50 4.3900e-17 
5515.00 3.5713e-17 
5516.50 3.7348e-17 
5518.00 3.6654e-17 
5519.50 4.2321e-17 
5521.00 3.0124e-17 
5522.50 4.3989e-17 
5524.00 4.1970e-17 
5525.50 4.4116e-17 
5527.00 4.3383e-17 
5528.50 4.4435e-17 
5530.00 4.2876e-17 
5531.50 4.3126e-17 
5533.00 4.2953e-17 
5534.50 2.9184e-17 
5536.00 4.3636e-17 
5537.50 4.2114e-17 
5539.00 4.0842e-17 
5540.50 4.0136e-17 
5542.00 4.3232e-17 
5543.50 4.4896e-17 
5545.00 4.3685e-17 
5546.50 4.2223e-17 
5548.00 4.2580e-17 
5549.50 4.1808e-17 
5551.00 3.4395e-17 
5552.50 4.7371e-17 
5554.00 4.9121e-17 
5555.50 3.9543e-17 
5557.00 3.7530e-17 
5558.50 4.1087e-17 
5560.00 3.5514e-17 
5561.50 3.7501e-17 
5563.00 3.8801e-17 
5564.50 5.1975e-17 
5566.00 4.3621e-17 
5567.50 4.9511e-17 
5569.00 4.7897e-17 
5570.50 5.2902e-17 
5572.00 4.8718e-17 
5573.50 5.1355e-17 
5575.00 5.2529e-17 
5576.50 1.4153e-17 
5578.00 1.1126e-16 
5579.50 3.0292e-17 
5581.00 3.4906e-17 
5582.50 5.4411e-17 
5584.00 4.7236e-17 
5585.50 3.9052e-17 
5587.00 3.4079e-17 
5588.50 4.7959e-17 
5590.00 3.8414e-17 
5591.50 4.1737e-17 
5593.00 4.7857e-17 
5594.50 4.9271e-17 
5596.00 4.3504e-17 
5597.50 4.0213e-17 
5599.00 4.5677e-17 
5600.50 5.4407e-17 
5602.00 4.5752e-17 
5603.50 4.0682e-17 
5605.00 3.6542e-17 
5606.50 4.6473e-17 
5608.00 3.2301e-17 
5609.50 3.9699e-17 
5611.00 4.0610e-17 
5612.50 5.0369e-17 
5614.00 3.8330e-17 
5615.50 3.2730e-17 
5617.00 2.9740e-17 
5618.50 3.9413e-17 
5620.00 4.3722e-17 
5621.50 4.8545e-17 
5623.00 4.5765e-17 
5624.50 3.5856e-17 
5626.00 3.2909e-17 
5627.50 3.5497e-17 
5629.00 3.9680e-17 
5630.50 4.3299e-17 
5632.00 3.8981e-17 
5633.50 4.4539e-17 
5635.00 3.6589e-17 
5636.50 4.5243e-17 
5638.00 4.6152e-17 
5639.50 4.6694e-17 
5641.00 4.6808e-17 
5642.50 5.0998e-17 
5644.00 4.3379e-17 
5645.50 4.3146e-17 
5647.00 3.8995e-17 
5648.50 4.0694e-17 
5650.00 4.4422e-17 
5651.50 4.3395e-17 
5653.00 3.4096e-17 
5654.50 4.5541e-17 
5656.00 3.7804e-17 
5657.50 2.7997e-17 
5659.00 4.5455e-17 
5660.50 4.0974e-17 
5662.00 4.8711e-17 
5663.50 3.4867e-17 
5665.00 4.3627e-17 
5666.50 4.1579e-17 
5668.00 3.9270e-17 
5669.50 4.3227e-17 
5671.00 4.0253e-17 
5672.50 4.5548e-17 
5674.00 3.6448e-17 
5675.50 4.2029e-17 
5677.00 4.2203e-17 
5678.50 3.1713e-17 
5680.00 3.7169e-17 
5681.50 3.7821e-17 
5683.00 4.2728e-17 
5684.50 3.7094e-17 
5686.00 4.7019e-17 
5687.50 4.5417e-17 
5689.00 4.8275e-17 
5690.50 3.7304e-17 
5692.00 4.0129e-17 
5693.50 3.9671e-17 
5695.00 4.9089e-17 
5696.50 3.7650e-17 
5698.00 3.7503e-17 
5699.50 4.2056e-17 
5701.00 3.5933e-17 
5702.50 4.2573e-17 
5704.00 4.8764e-17 
5705.50 4.2785e-17 
5707.00 3.9651e-17 
5708.50 3.6229e-17 
5710.00 4.4078e-17 
5711.50 4.1648e-17 
5713.00 3.3841e-17 
5714.50 3.6736e-17 
5716.00 4.0102e-17 
5717.50 4.6394e-17 
5719.00 3.8108e-17 
5720.50 4.5344e-17 
5722.00 4.0527e-17 
5723.50 3.8179e-17 
5725.00 3.2089e-17 
5726.50 3.9839e-17 
5728.00 4.0938e-17 
5729.50 4.3394e-17 
5731.00 2.9082e-17 
5732.50 2.5969e-17 
5734.00 2.6629e-17 
5735.50 2.8138e-17 
5737.00 3.6418e-17 
5738.50 3.4496e-17 
5740.00 4.0939e-17 
5741.50 4.8931e-17 
5743.00 4.3768e-17 
5744.50 4.1244e-17 
5746.00 3.9186e-17 
5747.50 3.9774e-17 
5749.00 3.1228e-17 
5750.50 4.3659e-17 
5752.00 4.2495e-17 
5753.50 3.6517e-17 
5755.00 4.0350e-17 
5756.50 4.2699e-17 
5758.00 2.9760e-17 
5759.50 3.9882e-17 
5761.00 4.0237e-17 
5762.50 3.6639e-17 
5764.00 4.4518e-17 
5765.50 3.9737e-17 
5767.00 4.7212e-17 
5768.50 4.3447e-17 
5770.00 4.6661e-17 
5771.50 4.3234e-17 
5773.00 3.4036e-17 
5774.50 3.9076e-17 
5776.00 4.3091e-17 
5777.50 4.3760e-17 
5779.00 3.3377e-17 
5780.50 3.8765e-17 
5782.00 4.6068e-17 
5783.50 4.2848e-17 
5785.00 3.7824e-17 
5786.50 4.0871e-17 
5788.00 3.9588e-17 
5789.50 4.1461e-17 
5791.00 3.9161e-17 
5792.50 4.9180e-17 
5794.00 3.2462e-17 
5795.50 4.2644e-17 
5797.00 4.7583e-17 
5798.50 3.6523e-17 
5800.00 3.6794e-17 
5801.50 3.9014e-17 
5803.00 3.6636e-17 
5804.50 4.2417e-17 
5806.00 3.3455e-17 
5807.50 4.1278e-17 
5809.00 3.4883e-17 
5810.50 3.1371e-17 
5812.00 3.8998e-17 
5813.50 3.3638e-17 
5815.00 3.0646e-17 
5816.50 3.8744e-17 
5818.00 4.1531e-17 
5819.50 4.0450e-17 
5821.00 3.6694e-17 
5822.50 4.4387e-17 
5824.00 3.6315e-17 
5825.50 3.1309e-17 
5827.00 2.8904e-17 
5828.50 4.1208e-17 
5830.00 3.5821e-17 
5831.50 2.8673e-17 
5833.00 3.5779e-17 
5834.50 3.6965e-17 
5836.00 3.5698e-17 
5837.50 3.5973e-17 
5839.00 3.6597e-17 
5840.50 3.2774e-17 
5842.00 3.8657e-17 
5843.50 4.4422e-17 
5845.00 3.9431e-17 
5846.50 2.3902e-17 
5848.00 3.0779e-17 
5849.50 4.9258e-17 
5851.00 4.0504e-17 
5852.50 3.0231e-17 
5854.00 3.9144e-17 
5855.50 3.5443e-17 
5857.00 3.4650e-17 
5858.50 3.7142e-17 
5860.00 3.9793e-17 
5861.50 4.0899e-17 
5863.00 2.7135e-17 
5864.50 3.4212e-17 
5866.00 4.2660e-17 
5867.50 4.0085e-17 
5869.00 3.4788e-17 
5870.50 2.6827e-17 
5872.00 4.2125e-17 
5873.50 5.3035e-17 
5875.00 3.0147e-17 
5876.50 3.1253e-17 
5878.00 3.9120e-17 
5879.50 4.2467e-17 
5881.00 4.4843e-17 
5882.50 4.2649e-17 
5884.00 3.1333e-17 
5885.50 3.3363e-17 
5887.00 4.9644e-17 
5888.50 3.7306e-17 
5890.00 4.4093e-17 
5891.50 5.3308e-17 
5893.00 5.7270e-17 
5894.50 5.0243e-17 
5896.00 3.8301e-17 
5897.50 2.7285e-17 
5899.00 2.4111e-17 
5900.50 4.4455e-17 
5902.00 5.0940e-17 
5903.50 4.2412e-17 
5905.00 3.6410e-17 
5906.50 3.1322e-17 
5908.00 2.6215e-17 
5909.50 3.4008e-17 
5911.00 3.5751e-17 
5912.50 3.1819e-17 
5914.00 3.8846e-17 
5915.50 3.0673e-17 
5917.00 3.9409e-17 
5918.50 4.5027e-17 
5920.00 3.6384e-17 
5921.50 3.6926e-17 
5923.00 3.6970e-17 
5924.50 3.4451e-17 
5926.00 3.3495e-17 
5927.50 3.2326e-17 
5929.00 3.4325e-17 
5930.50 3.8818e-17 
5932.00 1.8642e-17 
5933.50 2.9882e-17 
5935.00 3.5047e-17 
5936.50 3.2222e-17 
5938.00 3.0924e-17 
5939.50 3.3482e-17 
5941.00 3.6971e-17 
5942.50 4.3493e-17 
5944.00 3.0155e-17 
5945.50 2.9655e-17 
5947.00 4.0839e-17 
5948.50 4.7506e-17 
5950.00 3.9290e-17 
5951.50 4.0539e-17 
5953.00 4.6279e-17 
5954.50 4.4341e-17 
5956.00 3.6098e-17 
5957.50 2.7359e-17 
5959.00 3.6269e-17 
5960.50 3.8695e-17 
5962.00 4.3888e-17 
5963.50 4.9629e-17 
5965.00 4.0272e-17 
5966.50 4.0763e-17 
5968.00 5.6306e-17 
5969.50 4.4871e-17 
5971.00 3.8466e-17 
5972.50 4.1276e-17 
5974.00 4.3165e-17 
5975.50 4.0563e-17 
5977.00 3.5982e-17 
5978.50 4.2926e-17 
5980.00 3.3655e-17 
5981.50 4.5600e-17 
5983.00 3.9995e-17 
5984.50 3.6785e-17 
5986.00 4.2382e-17 
5987.50 4.3207e-17 
5989.00 3.5466e-17 
5990.50 3.5999e-17 
5992.00 4.8835e-17 
5993.50 4.8531e-17 
5995.00 4.3498e-17 
5996.50 3.7526e-17 
5998.00 4.1661e-17 
5999.50 3.5729e-17 
6001.00 4.0545e-17 
6002.50 4.5168e-17 
6004.00 4.4604e-17 
6005.50 3.1736e-17 
6007.00 2.2500e-17 
6008.50 2.9392e-17 
6010.00 3.7121e-17 
6011.50 3.6862e-17 
6013.00 2.2936e-17 
6014.50 3.5391e-17 
6016.00 4.1336e-17 
6017.50 3.4449e-17 
6019.00 2.8091e-17 
6020.50 3.0960e-17 
6022.00 3.4448e-17 
6023.50 4.0432e-17 
6025.00 3.4720e-17 
6026.50 4.7469e-17 
6028.00 4.2081e-17 
6029.50 3.5988e-17 
6031.00 4.1806e-17 
6032.50 3.9626e-17 
6034.00 3.6116e-17 
6035.50 3.1210e-17 
6037.00 4.3122e-17 
6038.50 4.1120e-17 
6040.00 3.6247e-17 
6041.50 4.0053e-17 
6043.00 3.6377e-17 
6044.50 3.2664e-17 
6046.00 3.9026e-17 
6047.50 3.5282e-17 
6049.00 3.9330e-17 
6050.50 3.4578e-17 
6052.00 3.3703e-17 
6053.50 3.5056e-17 
6055.00 5.1945e-17 
6056.50 4.6840e-17 
6058.00 4.8558e-17 
6059.50 5.5875e-17 
6061.00 6.4878e-17 
6062.50 7.4977e-17 
6064.00 6.8613e-17 
6065.50 7.0445e-17 
6067.00 6.4721e-17 
6068.50 6.4577e-17 
6070.00 5.2195e-17 
6071.50 4.0677e-17 
6073.00 3.1093e-17 
6074.50 4.2072e-17 
6076.00 4.3003e-17 
6077.50 2.9286e-17 
6079.00 2.9401e-17 
6080.50 3.7306e-17 
6082.00 3.6579e-17 
6083.50 3.5634e-17 
6085.00 3.4664e-17 
6086.50 2.9826e-17 
6088.00 3.5171e-17 
6089.50 4.2018e-17 
6091.00 3.4272e-17 
6092.50 3.2837e-17 
6094.00 3.2006e-17 
6095.50 2.7478e-17 
6097.00 3.2187e-17 
6098.50 3.3086e-17 
6100.00 3.6760e-17 
6101.50 3.8115e-17 
6103.00 3.5696e-17 
6104.50 3.7983e-17 
6106.00 4.4741e-17 
6107.50 3.2803e-17 
6109.00 2.2715e-17 
6110.50 2.6695e-17 
6112.00 3.5568e-17 
6113.50 4.1759e-17 
6115.00 4.4597e-17 
6116.50 4.8768e-17 
6118.00 3.3343e-17 
6119.50 2.7847e-17 
6121.00 3.6644e-17 
6122.50 3.6491e-17 
6124.00 3.6843e-17 
6125.50 4.3055e-17 
6127.00 3.5015e-17 
6128.50 3.4301e-17 
6130.00 3.5533e-17 
6131.50 3.0921e-17 
6133.00 2.7584e-17 
6134.50 2.5397e-17 
6136.00 3.5914e-17 
6137.50 3.4057e-17 
6139.00 2.8589e-17 
6140.50 5.2157e-17 
6142.00 2.8219e-17 
6143.50 3.1914e-17 
6145.00 3.3154e-17 
6146.50 4.1627e-17 
6148.00 3.4602e-17 
6149.50 2.7376e-17 
6151.00 3.6172e-17 
6152.50 3.2122e-17 
6154.00 2.7493e-17 
6155.50 3.8481e-17 
6157.00 4.4574e-17 
6158.50 3.8006e-17 
6160.00 3.3193e-17 
6161.50 3.4850e-17 
6163.00 3.4756e-17 
6164.50 2.8016e-17 
6166.00 3.0342e-17 
6167.50 3.0741e-17 
6169.00 3.4769e-17 
6170.50 3.4960e-17 
6172.00 2.7259e-17 
6173.50 2.9949e-17 
6175.00 3.8565e-17 
6176.50 3.8952e-17 
6178.00 3.0207e-17 
6179.50 2.7446e-17 
6181.00 3.8766e-17 
6182.50 3.6467e-17 
6184.00 2.6318e-17 
6185.50 3.2150e-17 
6187.00 3.5930e-17 
6188.50 3.2547e-17 
6190.00 3.1087e-17 
6191.50 3.0421e-17 
6193.00 3.2118e-17 
6194.50 2.9875e-17 
6196.00 4.0704e-17 
6197.50 3.8580e-17 
6199.00 3.6706e-17 
6200.50 3.7525e-17 
6202.00 3.4787e-17 
6203.50 3.6114e-17 
6205.00 3.5264e-17 
6206.50 3.5258e-17 
6208.00 3.3146e-17 
6209.50 2.9586e-17 
6211.00 2.8829e-17 
6212.50 3.9003e-17 
6214.00 3.5914e-17 
6215.50 3.3318e-17 
6217.00 2.7269e-17 
6218.50 3.1748e-17 
6220.00 3.8900e-17 
6221.50 3.6743e-17 
6223.00 2.2914e-17 
6224.50 3.8951e-17 
6226.00 3.0699e-17 
6227.50 3.1298e-17 
6229.00 3.6123e-17 
6230.50 3.3453e-17 
6232.00 2.9380e-17 
6233.50 2.7303e-17 
6235.00 2.9151e-17 
6236.50 2.8529e-17 
6238.00 3.3332e-17 
6239.50 3.6588e-17 
6241.00 3.3341e-17 
6242.50 2.8977e-17 
6244.00 3.0230e-17 
6245.50 3.6428e-17 
6247.00 3.2479e-17 
6248.50 3.1295e-17 
6250.00 3.0144e-17 
6251.50 3.0395e-17 
6253.00 3.7686e-17 
6254.50 3.5991e-17 
6256.00 3.6854e-17 
6257.50 3.4168e-17 
6259.00 2.7791e-17 
6260.50 3.6154e-17 
6262.00 2.3423e-17 
6263.50 2.4581e-17 
6265.00 3.5754e-17 
6266.50 3.7809e-17 
6268.00 3.5064e-17 
6269.50 3.5272e-17 
6271.00 3.4581e-17 
6272.50 2.8101e-17 
6274.00 2.6509e-17 
6275.50 3.0934e-17 
6277.00 3.7760e-17 
6278.50 3.6453e-17 
6280.00 2.9461e-17 
6281.50 2.9613e-17 
6283.00 2.9598e-17 
6284.50 3.7176e-17 
6286.00 2.9759e-17 
6287.50 2.9490e-17 
6289.00 5.1158e-17 
6290.50 4.6040e-17 
6292.00 3.6957e-17 
6293.50 4.7699e-17 
6295.00 5.4518e-17 
6296.50 4.5689e-17 
6298.00 3.5572e-17 
6299.50 3.9688e-17 
6301.00 4.0781e-17 
6302.50 2.9034e-17 
6304.00 3.1895e-17 
6305.50 3.3668e-17 
6307.00 3.1485e-17 
6308.50 2.3948e-17 
6310.00 2.8367e-17 
6311.50 3.1634e-17 
6313.00 3.5567e-17 
6314.50 3.4087e-17 
6316.00 3.2047e-17 
6317.50 3.2783e-17 
6319.00 3.6039e-17 
6320.50 3.2145e-17 
6322.00 2.6886e-17 
6323.50 3.2677e-17 
6325.00 4.0985e-17 
6326.50 4.2165e-17 
6328.00 4.0986e-17 
6329.50 3.1312e-17 
6331.00 3.0914e-17 
6332.50 3.7613e-17 
6334.00 4.2921e-17 
6335.50 3.5303e-17 
6337.00 2.7698e-17 
6338.50 3.5345e-17 
6340.00 3.6347e-17 
6341.50 3.0041e-17 
6343.00 3.2928e-17 
6344.50 2.8064e-17 
6346.00 3.6950e-17 
6347.50 3.0443e-17 
6349.00 2.8223e-17 
6350.50 2.2513e-17 
6352.00 3.6688e-17 
6353.50 3.0771e-17 
6355.00 2.7511e-17 
6356.50 3.3396e-17 
6358.00 3.1752e-17 
6359.50 3.4312e-17 
6361.00 3.1026e-17 
6362.50 3.1586e-17 
6364.00 3.5878e-17 
6365.50 3.1973e-17 
6367.00 2.8583e-17 
6368.50 2.6784e-17 
6370.00 2.3689e-17 
6371.50 2.9361e-17 
6373.00 3.0009e-17 
6374.50 3.0321e-17 
6376.00 3.4489e-17 
6377.50 3.0675e-17 
6379.00 3.1478e-17 
6380.50 3.2338e-17 
6382.00 2.9260e-17 
6383.50 2.9842e-17 
6385.00 2.5972e-17 
6386.50 2.5502e-17 
6388.00 3.2178e-17 
6389.50 3.0518e-17 
6391.00 2.1353e-17 
6392.50 2.2702e-17 
6394.00 2.0524e-17 
6395.50 2.1684e-17 
6397.00 2.4428e-17 
6398.50 2.1408e-17 
6400.00 3.0003e-17 
6401.50 3.0361e-17 
6403.00 2.0921e-17 
6404.50 1.8123e-17 
6406.00 2.1306e-17 
6407.50 2.4914e-17 
6409.00 2.9167e-17 
6410.50 3.0635e-17 
6412.00 2.8151e-17 
6413.50 2.8129e-17 
6415.00 3.2008e-17 
6416.50 3.4122e-17 
6418.00 3.1827e-17 
6419.50 2.8025e-17 
6421.00 3.7274e-17 
6422.50 3.0334e-17 
6424.00 2.8210e-17 
6425.50 2.4127e-17 
6427.00 3.3117e-17 
6428.50 3.7156e-17 
6430.00 3.7331e-17 
6431.50 2.6531e-17 
6433.00 3.1565e-17 
6434.50 2.9981e-17 
6436.00 3.3195e-17 
6437.50 3.7328e-17 
6439.00 3.4001e-17 
6440.50 3.3011e-17 
6442.00 3.0030e-17 
6443.50 3.6458e-17 
6445.00 3.7354e-17 
6446.50 3.1072e-17 
6448.00 2.7743e-17 
6449.50 3.0185e-17 
6451.00 3.3537e-17 
6452.50 3.2153e-17 
6454.00 4.0045e-17 
6455.50 3.6917e-17 
6457.00 3.0441e-17 
6458.50 3.3790e-17 
6460.00 2.8786e-17 
6461.50 2.7293e-17 
6463.00 3.2608e-17 
6464.50 3.3555e-17 
6466.00 2.8748e-17 
6467.50 2.5088e-17 
6469.00 2.5736e-17 
6470.50 2.7108e-17 
6472.00 2.7709e-17 
6473.50 2.9883e-17 
6475.00 3.4275e-17 
6476.50 3.2321e-17 
6478.00 2.8150e-17 
6479.50 2.6786e-17 
6481.00 3.1333e-17 
6482.50 3.7321e-17 
6484.00 3.4337e-17 
6485.50 3.0184e-17 
6487.00 2.5451e-17 
6488.50 2.7778e-17 
6490.00 3.6258e-17 
6491.50 4.0036e-17 
6493.00 3.9062e-17 
6494.50 3.7934e-17 
6496.00 3.6627e-17 
6497.50 3.5887e-17 
6499.00 3.6743e-17 
6500.50 3.1671e-17 
6502.00 2.9359e-17 
6503.50 3.3662e-17 
6505.00 3.3035e-17 
6506.50 3.1285e-17 
6508.00 3.5364e-17 
6509.50 3.7555e-17 
6511.00 3.3577e-17 
6512.50 3.3465e-17 
6514.00 3.2871e-17 
6515.50 3.3014e-17 
6517.00 2.7942e-17 
6518.50 2.5407e-17 
6520.00 2.7029e-17 
6521.50 2.7108e-17 
6523.00 3.1912e-17 
6524.50 3.7023e-17 
6526.00 3.3861e-17 
6527.50 3.0832e-17 
6529.00 2.9991e-17 
6530.50 2.7949e-17 
6532.00 2.4387e-17 
6533.50 2.2664e-17 
6535.00 2.6137e-17 
6536.50 2.9534e-17 
6538.00 2.9258e-17 
6539.50 2.7081e-17 
6541.00 3.0847e-17 
6542.50 3.4397e-17 
6544.00 3.2085e-17 
6545.50 2.9315e-17 
6547.00 3.0109e-17 
6548.50 3.3995e-17 
6550.00 3.4213e-17 
6551.50 2.9182e-17 
6553.00 2.8123e-17 
6554.50 3.0824e-17 
6556.00 2.9757e-17 
6557.50 2.5789e-17 
6559.00 2.3747e-17 
6560.50 2.4643e-17 
6562.00 2.6518e-17 
6563.50 2.9277e-17 
6565.00 3.4523e-17 
6566.50 3.4036e-17 
6568.00 2.6235e-17 
6569.50 3.1618e-17 
6571.00 3.3473e-17 
6572.50 3.3425e-17 
6574.00 3.5366e-17 
6575.50 3.0909e-17 
6577.00 2.6315e-17 
6578.50 2.7221e-17 
6580.00 2.5470e-17 
6581.50 2.3512e-17 
6583.00 2.9802e-17 
6584.50 3.7991e-17 
6586.00 3.5781e-17 
6587.50 2.5440e-17 
6589.00 3.0880e-17 
6590.50 2.8623e-17 
6592.00 2.4512e-17 
6593.50 2.7756e-17 
6595.00 3.3730e-17 
6596.50 3.0520e-17 
6598.00 3.0407e-17 
6599.50 2.2998e-17 
6601.00 2.6638e-17 
6602.50 3.1611e-17 
6604.00 2.8334e-17 
6605.50 3.3841e-17 
6607.00 3.2407e-17 
6608.50 2.4721e-17 
6610.00 2.8296e-17 
6611.50 3.0333e-17 
6613.00 3.2108e-17 
6614.50 3.6288e-17 
6616.00 2.8849e-17 
6617.50 3.2669e-17 
6619.00 3.1947e-17 
6620.50 2.6003e-17 
6622.00 2.9520e-17 
6623.50 2.6720e-17 
6625.00 3.3399e-17 
6626.50 3.4677e-17 
6628.00 2.9002e-17 
6629.50 3.3867e-17 
6631.00 2.8135e-17 
6632.50 2.5394e-17 
6634.00 2.3662e-17 
6635.50 2.5299e-17 
6637.00 2.8054e-17 
6638.50 2.7989e-17 
6640.00 3.0417e-17 
6641.50 3.6631e-17 
6643.00 3.7202e-17 
6644.50 3.1960e-17 
6646.00 2.9294e-17 
6647.50 2.7377e-17 
6649.00 2.8115e-17 
6650.50 2.9654e-17 
6652.00 3.1787e-17 
6653.50 3.4510e-17 
6655.00 3.3600e-17 
6656.50 2.9562e-17 
6658.00 3.3748e-17 
6659.50 3.7114e-17 
6661.00 2.9722e-17 
6662.50 2.9889e-17 
6664.00 3.0923e-17 
6665.50 3.2638e-17 
6667.00 2.9560e-17 
6668.50 3.0218e-17 
6670.00 3.7450e-17 
6671.50 3.3174e-17 
6673.00 2.8385e-17 
6674.50 3.7853e-17 
6676.00 3.8409e-17 
6677.50 2.8118e-17 
6679.00 2.9019e-17 
6680.50 3.2760e-17 
6682.00 2.9967e-17 
6683.50 3.2926e-17 
6685.00 3.4139e-17 
6686.50 3.1273e-17 
6688.00 2.8962e-17 
6689.50 3.4484e-17 
6691.00 3.4329e-17 
6692.50 3.2979e-17 
6694.00 3.8088e-17 
6695.50 3.9157e-17 
6697.00 3.0119e-17 
6698.50 3.0570e-17 
6700.00 3.0232e-17 
6701.50 3.0857e-17 
6703.00 2.7923e-17 
6704.50 2.6482e-17 
6706.00 2.7684e-17 
6707.50 2.7941e-17 
6709.00 2.8307e-17 
6710.50 3.3356e-17 
6712.00 3.8540e-17 
6713.50 3.8104e-17 
6715.00 3.3943e-17 
6716.50 2.9534e-17 
6718.00 2.9112e-17 
6719.50 3.1424e-17 
6721.00 3.2627e-17 
6722.50 3.5001e-17 
6724.00 3.1990e-17 
6725.50 3.5269e-17 
6727.00 3.9747e-17 
6728.50 3.0690e-17 
6730.00 3.4342e-17 
6731.50 3.8372e-17 
6733.00 2.8688e-17 
6734.50 2.8545e-17 
6736.00 3.3407e-17 
6737.50 2.1660e-17 
6739.00 2.6335e-17 
6740.50 2.8204e-17 
6742.00 3.1444e-17 
6743.50 2.7982e-17 
6745.00 3.3941e-17 
6746.50 3.3454e-17 
6748.00 3.0282e-17 
6749.50 2.7559e-17 
6751.00 2.6777e-17 
6752.50 2.7516e-17 
6754.00 2.7202e-17 
6755.50 2.7997e-17 
6757.00 2.7143e-17 
6758.50 2.6580e-17 
6760.00 2.9250e-17 
6761.50 2.7660e-17 
6763.00 2.7161e-17 
6764.50 3.1699e-17 
6766.00 2.7909e-17 
6767.50 3.0096e-17 
6769.00 3.4283e-17 
6770.50 3.2681e-17 
6772.00 2.6183e-17 
6773.50 3.2317e-17 
6775.00 3.2420e-17 
6776.50 2.7690e-17 
6778.00 2.8889e-17 
6779.50 2.9897e-17 
6781.00 2.6791e-17 
6782.50 2.8040e-17 
6784.00 2.7577e-17 
6785.50 2.5438e-17 
6787.00 2.3370e-17 
6788.50 2.6109e-17 
6790.00 2.6891e-17 
6791.50 2.5231e-17 
6793.00 2.5659e-17 
6794.50 2.6612e-17 
6796.00 2.4712e-17 
6797.50 2.2703e-17 
6799.00 2.5013e-17 
6800.50 2.8149e-17 
6802.00 2.6613e-17 
6803.50 2.4630e-17 
6805.00 2.7819e-17 
6806.50 3.0864e-17 
6808.00 2.6699e-17 
6809.50 2.4535e-17 
6811.00 2.6417e-17 
6812.50 2.7894e-17 
6814.00 2.5115e-17 
6815.50 3.0291e-17 
6817.00 2.2091e-17 
6818.50 2.1537e-17 
6820.00 2.8062e-17 
6821.50 2.3474e-17 
6823.00 2.9976e-17 
6824.50 2.8515e-17 
6826.00 3.0382e-17 
6827.50 2.9471e-17 
6829.00 2.8813e-17 
6830.50 2.7641e-17 
6832.00 2.7284e-17 
6833.50 3.0109e-17 
6835.00 2.7399e-17 
6836.50 2.2715e-17 
6838.00 2.8707e-17 
6839.50 2.9364e-17 
6841.00 3.0248e-17 
6842.50 3.4230e-17 
6844.00 3.4733e-17 
6845.50 3.0345e-17 
6847.00 2.1921e-17 
6848.50 3.7140e-17 
6850.00 1.8640e-17 
6851.50 2.8685e-17 
6853.00 2.7796e-17 
6854.50 2.6995e-17 
6856.00 2.2198e-17 
6857.50 2.2224e-17 
6859.00 2.7586e-17 
6860.50 2.6931e-17 
6862.00 2.9300e-17 
6863.50 2.8798e-17 
6865.00 2.3640e-17 
6866.50 2.8948e-17 
6868.00 3.4550e-17 
6869.50 3.4009e-17 
6871.00 3.4736e-17 
6872.50 2.4921e-17 
6874.00 3.2348e-17 
6875.50 1.9283e-17 
6877.00 2.0398e-17 
6878.50 3.6621e-17 
6880.00 2.9376e-17 
6881.50 2.5766e-17 
6883.00 3.1702e-17 
6884.50 2.9158e-17 
6886.00 2.8630e-17 
6887.50 2.8471e-17 
6889.00 2.5209e-17 
6890.50 2.5317e-17 
6892.00 2.8605e-17 
6893.50 2.8585e-17 
6895.00 2.7636e-17 
6896.50 2.9297e-17 
6898.00 2.7669e-17 
6899.50 2.6369e-17 
6901.00 3.1752e-17 
6902.50 2.6531e-17 
6904.00 2.6925e-17 
6905.50 3.2490e-17 
6907.00 2.9183e-17 
6908.50 2.2334e-17 
6910.00 1.8953e-17 
6911.50 1.9627e-17 
6913.00 2.3781e-17 
6914.50 2.2618e-17 
6916.00 2.1364e-17 
6917.50 2.1054e-17 
6919.00 2.2591e-17 
6920.50 2.7546e-17 
6922.00 3.2028e-17 
6923.50 3.2884e-17 
6925.00 2.7271e-17 
6926.50 3.2654e-17 
6928.00 3.4019e-17 
6929.50 3.0365e-17 
6931.00 2.7436e-17 
6932.50 2.6556e-17 
6934.00 2.7847e-17 
6935.50 3.0874e-17 
6937.00 2.7178e-17 
6938.50 2.8587e-17 
6940.00 3.1520e-17 
6941.50 2.7576e-17 
6943.00 2.5440e-17 
6944.50 2.8101e-17 
6946.00 2.7791e-17 
6947.50 2.6903e-17 
6949.00 2.6138e-17 
6950.50 1.7614e-17 
6952.00 2.4088e-17 
6953.50 3.3070e-17 
6955.00 2.3947e-17 
6956.50 2.6891e-17 
6958.00 2.5821e-17 
6959.50 2.6012e-17 
6961.00 2.8720e-17 
6962.50 2.6254e-17 
6964.00 2.7543e-17 
6965.50 3.0576e-17 
6967.00 2.8874e-17 
6968.50 2.7820e-17 
6970.00 2.9901e-17 
6971.50 2.8212e-17 
6973.00 3.0435e-17 
6974.50 2.8406e-17 
6976.00 2.2272e-17 
6977.50 3.1765e-17 
6979.00 3.4461e-17 
6980.50 2.7761e-17 
6982.00 2.4998e-17 
6983.50 2.3698e-17 
6985.00 2.5799e-17 
6986.50 2.4381e-17 
6988.00 2.6843e-17 
6989.50 2.8353e-17 
6991.00 2.3981e-17 
6992.50 2.5330e-17 
6994.00 3.1687e-17 
6995.50 2.3295e-17 
6997.00 3.1324e-17 
6998.50 3.1090e-17 
7000.00 2.4716e-17 
7001.50 2.6859e-17 
7003.00 2.5410e-17 
7004.50 3.1237e-17 
7006.00 3.6774e-17 
7007.50 3.1783e-17 
7009.00 2.4018e-17 
7010.50 2.3205e-17 
7012.00 2.6918e-17 
7013.50 3.3206e-17 
7015.00 4.1325e-17 
7016.50 3.8811e-17 
7018.00 3.6435e-17 
7019.50 3.3935e-17 
7021.00 3.3696e-17 
7022.50 3.6629e-17 
7024.00 3.0867e-17 
7025.50 3.0847e-17 
7027.00 3.7049e-17 
7028.50 3.9000e-17 
7030.00 3.5263e-17 
7031.50 3.3470e-17 
7033.00 3.6050e-17 
7034.50 3.6541e-17 
7036.00 3.2689e-17 
7037.50 3.3017e-17 
7039.00 3.5076e-17 
7040.50 4.1298e-17 
7042.00 3.8808e-17 
7043.50 4.2604e-17 
7045.00 4.0198e-17 
7046.50 4.2485e-17 
7048.00 4.0443e-17 
7049.50 3.6775e-17 
7051.00 3.6832e-17 
7052.50 3.6224e-17 
7054.00 3.7389e-17 
7055.50 4.3308e-17 
7057.00 3.7029e-17 
7058.50 3.4936e-17 
7060.00 4.3907e-17 
7061.50 3.7993e-17 
7063.00 3.9361e-17 
7064.50 4.0107e-17 
7066.00 4.0232e-17 
7067.50 3.7781e-17 
7069.00 3.7640e-17 
7070.50 4.0334e-17 
7072.00 3.8538e-17 
7073.50 3.5345e-17 
7075.00 3.9621e-17 
7076.50 4.0275e-17 
7078.00 4.1438e-17 
7079.50 3.1968e-17 
7081.00 3.8669e-17 
7082.50 4.2035e-17 
7084.00 4.5631e-17 
7085.50 3.9700e-17 
7087.00 4.1289e-17 
7088.50 4.1819e-17 
7090.00 3.8995e-17 
7091.50 3.8013e-17 
7093.00 4.2459e-17 
7094.50 5.0072e-17 
7096.00 4.3125e-17 
7097.50 3.5882e-17 
7099.00 4.0534e-17 
7100.50 3.5474e-17 
7102.00 3.9063e-17 
7103.50 4.1716e-17 
7105.00 4.0384e-17 
7106.50 3.7270e-17 
7108.00 3.6613e-17 
7109.50 4.0300e-17 
7111.00 4.3066e-17 
7112.50 3.9434e-17 
7114.00 3.9589e-17 
7115.50 3.7630e-17 
7117.00 3.3809e-17 
7118.50 3.6814e-17 
7120.00 3.7633e-17 
7121.50 3.5702e-17 
7123.00 3.3090e-17 
7124.50 3.1753e-17 
7126.00 3.0176e-17 
7127.50 2.8460e-17 
7129.00 2.8960e-17 
7130.50 3.0673e-17 
7132.00 2.9813e-17 
7133.50 3.0429e-17 
7135.00 3.3172e-17 
7136.50 3.4817e-17 
7138.00 3.1181e-17 
7139.50 2.6166e-17 
7141.00 2.1669e-17 
7142.50 2.3255e-17 
7144.00 2.8148e-17 
7145.50 2.9242e-17 
7147.00 2.6825e-17 
7148.50 2.6908e-17 
7150.00 2.5693e-17 
7151.50 3.1110e-17 
7153.00 3.1189e-17 
7154.50 2.8314e-17 
7156.00 2.9045e-17 
7157.50 2.7558e-17 
7159.00 2.6747e-17 
7160.50 3.0733e-17 
7162.00 3.3514e-17 
7163.50 2.9729e-17 
7165.00 3.1854e-17 
7166.50 3.5234e-17 
7168.00 3.1858e-17 
7169.50 2.9926e-17 
7171.00 2.5121e-17 
7172.50 2.9786e-17 
7174.00 3.2953e-17 
7175.50 3.1267e-17 
7177.00 3.1974e-17 
7178.50 3.5163e-17 
7180.00 3.5871e-17 
7181.50 4.2548e-17 
7183.00 3.7034e-17 
7184.50 2.4294e-17 
7186.00 2.7243e-17 
7187.50 3.4207e-17 
7189.00 3.3272e-17 
7190.50 2.5166e-17 
7192.00 2.8238e-17 
7193.50 3.5462e-17 
7195.00 3.1656e-17 
7196.50 2.6371e-17 
7198.00 3.3030e-17 
7199.50 2.7234e-17 
7201.00 3.3910e-17 
7202.50 3.2650e-17 
7204.00 3.1113e-17 
7205.50 3.0748e-17 
7207.00 2.9612e-17 
7208.50 2.9072e-17 
7210.00 2.9257e-17 
7211.50 2.9947e-17 
7213.00 3.4573e-17 
7214.50 3.5329e-17 
7216.00 2.0625e-17 
7217.50 3.2166e-17 
7219.00 2.5180e-17 
7220.50 2.8341e-17 
7222.00 3.2889e-17 
7223.50 2.8755e-17 
7225.00 2.6883e-17 
7226.50 3.2993e-17 
7228.00 2.9362e-17 
7229.50 3.5786e-17 
7231.00 2.4105e-17 
7232.50 3.2952e-17 
7234.00 3.4183e-17 
7235.50 3.2251e-17 
7237.00 2.8179e-17 
7238.50 2.7223e-17 
7240.00 2.7352e-17 
7241.50 2.7213e-17 
7243.00 3.1061e-17 
7244.50 2.3480e-17 
7246.00 3.4474e-17 
7247.50 3.6662e-17 
7249.00 2.9232e-17 
7250.50 3.0995e-17 
7252.00 3.1145e-17 
7253.50 2.7726e-17 
7255.00 3.0280e-17 
7256.50 3.6431e-17 
7258.00 2.7250e-17 
7259.50 3.2086e-17 
7261.00 2.8705e-17 
7262.50 3.6918e-17 
7264.00 3.0097e-17 
7265.50 2.9156e-17 
7267.00 2.6304e-17 
7268.50 2.3586e-17 
7270.00 2.7864e-17 
7271.50 3.4402e-17 
7273.00 2.6915e-17 
7274.50 4.0210e-17 
7276.00 2.4561e-17 
7277.50 2.1481e-17 
7279.00 4.7876e-17 
7280.50 4.5524e-17 
7282.00 3.0284e-17 
7283.50 2.3918e-17 
7285.00 2.7779e-17 
7286.50 3.3518e-17 
7288.00 4.6412e-17 
7289.50 3.4196e-17 
7291.00 3.4372e-17 
7292.50 2.9460e-17 
7294.00 3.2050e-17 
7295.50 3.0245e-17 
7297.00 3.0692e-17 
7298.50 3.1311e-17 
7300.00 2.4125e-17 
7301.50 2.7373e-17 
7303.00 2.6267e-17 
7304.50 3.6136e-17 
7306.00 3.1152e-17 
7307.50 3.9387e-17 
7309.00 3.7936e-17 
7310.50 3.0192e-17 
7312.00 2.5896e-17 
7313.50 2.6525e-17 
7315.00 2.6184e-17 
7316.50 2.5758e-17 
7318.00 2.3861e-17 
7319.50 3.9818e-17 
7321.00 3.9096e-17 
7322.50 3.7240e-17 
7324.00 3.6582e-17 
7325.50 3.6571e-17 
7327.00 3.4170e-17 
7328.50 2.5417e-17 
7330.00 3.3974e-17 
7331.50 2.5924e-17 
7333.00 3.8998e-17 
7334.50 3.1254e-17 
7336.00 2.9176e-17 
7337.50 3.1279e-17 
7339.00 2.5828e-17 
7340.50 1.9193e-17 
7342.00 3.6484e-17 
7343.50 2.0202e-17 
7345.00 3.8916e-17 
7346.50 2.9067e-17 
7348.00 2.9760e-17 
7349.50 3.1049e-17 
7351.00 3.4170e-17 
7352.50 3.7576e-17 
7354.00 3.7278e-17 
7355.50 3.5513e-17 
7357.00 2.1093e-17 
7358.50 3.8573e-17 
7360.00 2.3011e-17 
7361.50 3.0661e-17 
7363.00 3.0590e-17 
7364.50 2.9117e-17 
7366.00 3.4253e-17 
7367.50 3.3905e-17 
7369.00 1.6860e-17 
7370.50 3.5118e-17 
7372.00 3.2228e-17 
7373.50 3.4149e-17 
7375.00 3.4330e-17 
7376.50 2.9039e-17 
7378.00 2.4381e-17 
7379.50 2.6099e-17 
7381.00 2.9568e-17 
7382.50 2.4143e-17 
7384.00 3.5627e-17 
7385.50 3.1555e-17 
7387.00 3.4607e-17 
7388.50 2.8345e-17 
7390.00 3.0052e-17 
7391.50 3.3531e-17 
7393.00 2.1472e-17 
7394.50 3.3745e-17 
7396.00 3.0526e-17 
7397.50 2.5806e-17 
7399.00 3.4048e-17 
7400.50 2.5126e-17 
7402.00 3.1864e-17 
7403.50 3.8116e-17 
7405.00 2.6610e-17 
7406.50 3.7395e-17 
7408.00 3.1797e-17 
7409.50 2.4723e-17 
7411.00 3.7208e-17 
7412.50 3.4091e-17 
7414.00 3.6977e-17 
7415.50 3.7530e-17 
7417.00 3.2130e-17 
7418.50 3.6803e-17 
7420.00 2.6992e-17 
7421.50 3.6754e-17 
7423.00 2.8890e-17 
7424.50 2.9680e-17 
7426.00 2.8545e-17 
7427.50 2.7559e-17 
7429.00 2.7709e-17 
7430.50 2.5988e-17 
7432.00 2.9945e-17 
7433.50 3.3482e-17 
7435.00 3.7048e-17 
7436.50 3.3646e-17 
7438.00 3.3533e-17 
7439.50 3.6503e-17 
7441.00 3.5953e-17 
7442.50 2.7294e-17 
7444.00 1.9872e-17 
7445.50 3.4752e-17 
7447.00 3.1831e-17 
7448.50 2.9947e-17 
7450.00 2.7767e-17 
7451.50 2.8844e-17 
7453.00 3.0883e-17 
7454.50 2.8694e-17 
7456.00 3.1020e-17 
7457.50 2.9357e-17 
7459.00 3.0974e-17 
7460.50 3.2722e-17 
7462.00 3.4713e-17 
7463.50 3.5037e-17 
7465.00 3.2492e-17 
7466.50 2.8807e-17 
7468.00 3.1022e-17 
7469.50 3.2315e-17 
7471.00 3.2668e-17 
7472.50 3.3274e-17 
7474.00 3.3805e-17 
7475.50 3.6190e-17 
7477.00 3.7387e-17 
7478.50 3.0119e-17 
7480.00 2.5968e-17 
7481.50 1.7723e-17 
7483.00 3.2138e-17 
7484.50 2.9239e-17 
7486.00 3.0687e-17 
7487.50 3.5584e-17 
7489.00 3.3548e-17 
7490.50 2.8012e-17 
7492.00 3.6794e-17 
7493.50 2.8977e-17 
7495.00 2.7202e-17 
7496.50 2.6829e-17 
7498.00 3.0367e-17 
7499.50 3.4531e-17 
7501.00 3.4408e-17 
7502.50 3.7546e-17 
7504.00 3.7264e-17 
7505.50 3.3176e-17 
7507.00 3.6164e-17 
7508.50 3.1269e-17 
7510.00 2.6673e-17 
7511.50 3.0097e-17 
7513.00 3.4992e-17 
7514.50 2.8212e-17 
7516.00 3.2156e-17 
7517.50 2.9595e-17 
7519.00 2.7091e-17 
7520.50 2.6564e-17 
7522.00 2.5522e-17 
7523.50 2.3656e-17 
7525.00 3.3591e-17 
7526.50 3.2270e-17 
7528.00 3.6639e-17 
7529.50 3.5888e-17 
7531.00 3.5677e-17 
7532.50 3.4655e-17 
7534.00 3.0992e-17 
7535.50 2.6441e-17 
7537.00 2.3510e-17 
7538.50 3.0670e-17 
7540.00 3.4806e-17 
7541.50 3.4376e-17 
7543.00 3.1231e-17 
7544.50 2.9538e-17 
7546.00 3.2500e-17 
7547.50 3.4695e-17 
7549.00 3.1501e-17 
7550.50 3.2311e-17 
7552.00 2.9043e-17 
7553.50 2.6849e-17 
7555.00 2.7286e-17 
7556.50 2.7367e-17 
7558.00 2.0320e-17 
7559.50 3.0799e-17 
7561.00 2.6851e-17 
7562.50 2.3358e-17 
7564.00 3.0491e-17 
7565.50 3.6201e-17 
7567.00 3.2522e-17 
7568.50 3.3188e-17 
7570.00 3.3515e-17 
7571.50 2.8102e-17 
7573.00 3.2065e-17 
7574.50 3.4839e-17 
7576.00 3.3404e-17 
7577.50 2.9329e-17 
7579.00 2.7188e-17 
7580.50 3.2139e-17 
7582.00 3.1872e-17 
7583.50 2.6878e-17 
7585.00 2.7348e-17 
7586.50 2.9684e-17 
7588.00 2.9424e-17 
7589.50 2.6186e-17 
7591.00 2.9825e-17 
7592.50 2.2017e-17 
7594.00 2.9182e-17 
7595.50 3.2550e-17 
7597.00 2.8746e-17 
7598.50 2.3648e-17 
7600.00 2.6679e-17 
7601.50 2.3891e-17 
7603.00 2.6854e-17 
7604.50 3.4436e-17 
7606.00 3.7474e-17 
7607.50 2.8769e-17 
7609.00 1.9253e-17 
7610.50 3.1785e-17 
7612.00 3.8223e-17 
7613.50 3.5318e-17 
7615.00 3.7798e-17 
7616.50 3.4869e-17 
7618.00 3.0721e-17 
7619.50 2.9762e-17 
7621.00 3.2598e-17 
7622.50 3.8495e-17 
7624.00 3.3992e-17 
7625.50 3.6696e-17 
7627.00 3.9529e-17 
7628.50 3.9937e-17 
7630.00 3.9340e-17 
7631.50 4.2930e-17 
7633.00 4.8838e-17 
7634.50 3.4827e-17 
7636.00 2.6637e-17 
7637.50 2.7025e-17 
7639.00 2.8068e-17 
7640.50 2.5501e-17 
7642.00 3.0384e-17 
7643.50 3.6344e-17 
7645.00 3.4177e-17 
7646.50 2.5716e-17 
7648.00 2.2972e-17 
7649.50 3.0297e-17 
7651.00 4.1586e-17 
7652.50 3.0635e-17 
7654.00 3.1092e-17 
7655.50 3.4364e-17 
7657.00 3.1569e-17 
7658.50 3.2927e-17 
7660.00 3.6239e-17 
7661.50 3.0321e-17 
7663.00 2.5946e-17 
7664.50 2.8817e-17 
7666.00 3.3006e-17 
7667.50 2.9925e-17 
7669.00 2.7160e-17 
7670.50 2.8474e-17 
7672.00 2.6427e-17 
7673.50 3.5921e-17 
7675.00 3.4115e-17 
7676.50 3.3402e-17 
7678.00 2.8985e-17 
7679.50 2.7902e-17 
7681.00 3.6005e-17 
7682.50 3.4649e-17 
7684.00 3.3421e-17 
7685.50 3.3181e-17 
7687.00 3.3487e-17 
7688.50 3.3819e-17 
7690.00 3.3373e-17 
7691.50 3.1443e-17 
7693.00 3.2351e-17 
7694.50 2.8508e-17 
7696.00 2.5239e-17 
7697.50 2.3644e-17 
7699.00 2.4646e-17 
7700.50 2.9467e-17 
7702.00 4.1834e-17 
7703.50 3.0361e-17 
7705.00 2.6048e-17 
7706.50 2.3602e-17 
7708.00 2.9364e-17 
7709.50 3.9056e-17 
7711.00 3.7115e-17 
7712.50 1.1058e-17 
7714.00 1.8261e-17 
7715.50 3.0890e-17 
7717.00 3.3767e-17 
7718.50 2.8992e-17 
7720.00 2.5065e-17 
7721.50 2.7472e-17 
7723.00 1.9504e-17 
7724.50 2.4726e-17 
7726.00 2.6980e-17 
7727.50 2.8449e-17 
7729.00 3.4958e-17 
7730.50 5.4075e-17 
7732.00 2.7741e-17 
7733.50 3.0016e-17 
7735.00 2.7571e-17 
7736.50 2.5540e-17 
7738.00 2.4865e-17 
7739.50 2.4198e-17 
7741.00 3.3103e-17 
7742.50 2.8195e-17 
7744.00 2.7259e-17 
7745.50 2.7757e-17 
7747.00 2.7682e-17 
7748.50 2.5370e-17 
7750.00 1.9617e-17 
7751.50 2.4575e-17 
7753.00 3.4378e-17 
7754.50 4.0145e-17 
7756.00 3.8609e-17 
7757.50 3.1691e-17 
7759.00 2.9190e-17 
7760.50 3.9093e-17 
7762.00 3.2680e-17 
7763.50 3.2049e-17 
7765.00 3.1558e-17 
7766.50 3.0151e-17 
7768.00 3.2557e-17 
7769.50 2.9002e-17 
7771.00 2.8938e-17 
7772.50 2.6228e-17 
7774.00 3.1192e-17 
7775.50 3.9654e-17 
7777.00 3.9632e-17 
7778.50 4.4051e-17 
7780.00 3.3828e-17 
7781.50 3.8198e-17 
7783.00 3.5067e-17 
7784.50 2.9225e-17 
7786.00 3.2717e-17 
7787.50 2.8566e-17 
7789.00 2.9594e-17 
7790.50 3.5276e-17 
7792.00 3.5012e-17 
7793.50 3.3071e-17 
7795.00 3.5411e-17 
7796.50 3.4088e-17 
7798.00 2.4443e-17 
7799.50 3.0422e-17 
7801.00 3.3540e-17 
7802.50 3.2641e-17 
7804.00 3.0468e-17 
7805.50 3.1001e-17 
7807.00 2.6027e-17 
7808.50 2.8059e-17 
7810.00 2.8648e-17 
7811.50 3.0961e-17 
7813.00 3.7034e-17 
7814.50 3.7701e-17 
7816.00 3.4380e-17 
7817.50 3.5325e-17 
7819.00 4.0572e-17 
7820.50 3.8020e-17 
7822.00 2.3881e-17 
7823.50 3.3170e-17 
7825.00 3.2403e-17 
7826.50 3.8919e-17 
7828.00 3.8959e-17 
7829.50 3.6124e-17 
7831.00 3.5466e-17 
7832.50 3.5652e-17 
7834.00 3.8587e-17 
7835.50 3.7602e-17 
7837.00 3.9230e-17 
7838.50 4.1506e-17 
7840.00 4.1335e-17 
7841.50 3.7869e-17 
7843.00 2.3388e-17 
7844.50 3.4101e-17 
7846.00 3.9074e-17 
7847.50 4.0108e-17 
7849.00 4.5421e-17 
7850.50 4.9124e-17 
7852.00 2.8094e-17 
7853.50 2.6819e-17 
7855.00 3.3753e-17 
7856.50 4.4514e-17 
7858.00 5.5592e-17 
7859.50 5.7029e-17 
7861.00 4.3572e-17 
7862.50 4.1630e-17 
7864.00 4.2897e-17 
7865.50 4.4329e-17 
7867.00 4.5299e-17 
7868.50 4.3482e-17 
7870.00 5.5090e-17 
7871.50 5.5572e-17 
7873.00 5.1215e-17 
7874.50 4.8969e-17 
7876.00 5.8867e-17 
7877.50 3.4589e-17 
7879.00 4.3970e-17 
7880.50 4.6924e-17 
7882.00 4.9934e-17 
7883.50 5.5773e-17 
7885.00 5.0705e-17 
7886.50 5.9403e-17 
7888.00 5.8131e-17 
7889.50 5.7303e-17 
7891.00 5.0535e-17 
7892.50 3.5831e-17 
7894.00 7.0831e-17 
7895.50 5.5769e-17 
7897.00 4.9703e-17 
7898.50 4.6670e-17 
7900.00 4.8118e-17 
7901.50 5.8070e-17 
7903.00 6.1679e-17 
7904.50 6.1189e-17 
7906.00 6.8482e-17 
7907.50 7.1936e-17 
7909.00 6.9010e-17 
7910.50 7.0489e-17 
7912.00 5.9872e-17 
7913.50 5.9970e-17 
7915.00 6.5228e-17 
7916.50 6.6287e-17 
7918.00 5.7242e-17 
7919.50 5.4542e-17 
7921.00 4.6041e-17 
7922.50 4.3427e-17 
7924.00 4.9375e-17 
7925.50 5.8100e-17 
7927.00 5.8146e-17 
7928.50 5.2367e-17 
7930.00 5.1937e-17 
7931.50 4.6677e-17 
7933.00 4.5322e-17 
7934.50 5.0839e-17 
7936.00 5.4963e-17 
7937.50 4.4030e-17 
7939.00 4.7967e-17 
7940.50 4.7171e-17 
7942.00 4.6022e-17 
7943.50 5.2306e-17 
7945.00 4.7558e-17 
7946.50 5.1922e-17 
7948.00 5.1464e-17 
7949.50 4.7567e-17 
7951.00 4.4530e-17 
7952.50 5.4438e-17 
7954.00 5.2870e-17 
7955.50 4.8651e-17 
7957.00 4.6095e-17 
7958.50 4.6952e-17 
7960.00 5.1311e-17 
7961.50 4.2733e-17 
7963.00 4.0557e-17 
7964.50 4.4559e-17 
7966.00 4.2428e-17 
7967.50 3.7337e-17 
7969.00 5.3833e-17 
7970.50 5.5109e-17 
7972.00 5.1250e-17 
7973.50 4.2557e-17 
7975.00 3.7567e-17 
7976.50 4.3999e-17 
7978.00 3.4159e-17 
7979.50 3.6833e-17 
7981.00 4.1138e-17 
7982.50 4.2400e-17 
7984.00 4.0288e-17 
7985.50 4.1430e-17 
7987.00 4.5706e-17 
7988.50 4.4116e-17 
7990.00 4.5243e-17 
7991.50 4.4544e-17 
7993.00 3.4607e-17 
7994.50 5.6641e-17 
7996.00 3.0794e-17 
7997.50 3.7287e-17 
7999.00 4.3712e-17 
8000.50 3.4521e-17 
8002.00 4.2439e-17 
8003.50 3.1274e-17 
8005.00 3.2158e-17 
8006.50 3.4096e-17 
8008.00 3.5141e-17 
8009.50 3.6730e-17 
8011.00 4.3592e-17 
8012.50 4.3147e-17 
8014.00 3.9125e-17 
8015.50 3.3668e-17 
8017.00 2.8973e-17 
8018.50 2.6203e-17 
8020.00 3.5179e-17 
8021.50 3.2936e-17 
8023.00 3.1713e-17 
8024.50 3.5000e-17 
8026.00 2.6365e-17 
8027.50 3.4402e-17 
8029.00 3.8572e-17 
8030.50 3.8552e-17 
8032.00 3.5604e-17 
8033.50 3.3341e-17 
8035.00 3.3522e-17 
8036.50 3.8515e-17 
8038.00 3.9223e-17 
8039.50 3.5573e-17 
8041.00 2.8835e-17 
8042.50 3.3243e-17 
8044.00 3.6614e-17 
8045.50 3.9621e-17 
8047.00 3.8538e-17 
8048.50 3.2303e-17 
8050.00 3.6011e-17 
8051.50 3.7456e-17 
8053.00 4.2753e-17 
8054.50 4.4270e-17 
8056.00 4.0175e-17 
8057.50 3.4769e-17 
8059.00 4.6718e-17 
8060.50 4.9257e-17 
8062.00 5.5598e-17 
8063.50 6.4914e-17 
8065.00 6.9626e-17 
8066.50 8.2578e-17 
8068.00 8.1533e-17 
8069.50 7.8917e-17 
8071.00 7.4260e-17 
8072.50 6.5157e-17 
8074.00 5.6708e-17 
8075.50 4.8837e-17 
8077.00 4.5411e-17 
8078.50 4.1052e-17 
8080.00 3.1226e-17 
8081.50 5.0004e-17 
8083.00 2.8045e-17 
8084.50 2.7142e-17 
8086.00 3.3025e-17 
8087.50 3.6148e-17 
8089.00 3.3961e-17 
8090.50 3.2354e-17 
8092.00 3.9302e-17 
8093.50 4.0036e-17 
8095.00 3.0784e-17 
8096.50 3.3253e-17 
8098.00 3.1658e-17 
8099.50 3.1877e-17 
8101.00 3.5546e-17 
8102.50 3.9772e-17 
8104.00 2.6293e-17 
8105.50 1.8981e-17 
8107.00 2.3677e-17 
8108.50 2.7364e-17 
8110.00 2.8596e-17 
8111.50 3.3726e-17 
8113.00 3.2917e-17 
8114.50 3.4058e-17 
8116.00 3.4976e-17 
8117.50 3.6454e-17 
8119.00 4.2513e-17 
8120.50 4.3224e-17 
8122.00 4.0347e-17 
8123.50 3.8734e-17 
8125.00 3.9126e-17 
8126.50 4.1838e-17 
8128.00 4.1735e-17 
8129.50 4.5888e-17 
8131.00 4.4246e-17 
8132.50 4.1230e-17 
8134.00 5.0497e-17 
8135.50 5.5847e-17 
8137.00 6.6372e-17 
8138.50 7.6537e-17 
8140.00 9.0900e-17 
8141.50 1.2375e-16 
8143.00 1.5301e-16 
8144.50 1.6448e-16 
8146.00 1.6148e-16 
8147.50 1.4688e-16 
8149.00 1.2507e-16 
8150.50 1.1016e-16 
8152.00 9.4226e-17 
8153.50 8.0942e-17 
8155.00 6.9221e-17 
8156.50 5.3529e-17 
8158.00 3.8481e-17 
8159.50 3.1668e-17 
8161.00 2.9682e-17 
8162.50 3.0510e-17 
8164.00 2.9375e-17 
8165.50 3.2592e-17 
8167.00 3.9493e-17 
8168.50 3.4871e-17 
8170.00 2.5291e-17 
8171.50 3.8616e-17 
8173.00 2.8509e-17 
8174.50 2.8723e-17 
8176.00 2.9356e-17 
8177.50 3.0270e-17 
8179.00 3.7987e-17 
8180.50 3.2626e-17 
8182.00 3.0196e-17 
8183.50 3.0180e-17 
8185.00 3.2512e-17 
8186.50 3.7252e-17 
8188.00 3.3453e-17 
8189.50 2.7725e-17 
8191.00 2.4868e-17 
8192.50 2.5676e-17 
8194.00 2.0934e-17 
8195.50 3.6468e-17 
8197.00 3.4586e-17 
8198.50 3.1441e-17 
8200.00 3.3173e-17 
8201.50 2.1842e-17 
8203.00 2.8224e-17 
8204.50 3.0030e-17 
8206.00 2.7532e-17 
8207.50 2.0484e-17 
8209.00 1.9562e-17 
8210.50 3.1414e-17 
8212.00 3.4938e-17 
8213.50 3.3033e-17 
8215.00 2.8321e-17 
8216.50 2.8794e-17 
8218.00 2.6376e-17 
8219.50 2.5781e-17 
8221.00 2.7027e-17 
8222.50 3.0235e-17 
8224.00 3.8887e-17 
8225.50 3.6172e-17 
8227.00 3.4344e-17 
8228.50 3.4854e-17 
8230.00 3.8086e-17 
8231.50 2.8308e-17 
8233.00 3.0250e-17 
8234.50 3.4122e-17 
8236.00 3.6205e-17 
8237.50 2.3123e-17 
8239.00 2.8780e-17 
8240.50 2.8582e-17 
8242.00 2.6790e-17 
8243.50 2.5526e-17 
8245.00 2.9754e-17 
8246.50 2.6092e-17 
8248.00 2.6957e-17 
8249.50 3.0277e-17 
8251.00 3.4189e-17 
8252.50 3.2124e-17 
8254.00 3.5588e-17 
8255.50 3.4024e-17 
8257.00 2.8981e-17 
8258.50 2.5830e-17 
8260.00 3.2128e-17 
8261.50 3.3724e-17 
8263.00 3.4913e-17 
8264.50 3.5979e-17 
8266.00 3.2226e-17 
8267.50 3.3081e-17 
8269.00 3.0305e-17 
8270.50 2.8843e-17 
8272.00 3.1813e-17 
8273.50 2.4055e-17 
8275.00 2.5753e-17 
8276.50 2.4565e-17 
8278.00 2.2685e-17 
8279.50 2.3864e-17 
8281.00 2.6635e-17 
8282.50 2.9710e-17 
8284.00 2.1895e-17 
8285.50 8.2412e-18 
8287.00 2.5687e-17 
8288.50 1.5073e-17 
8290.00 2.1936e-17 
8291.50 2.9010e-17 
8293.00 2.8668e-17 
8294.50 1.8141e-17 
8296.00 3.0626e-17 
8297.50 2.3706e-17 
8299.00 1.2088e-17 
8300.50 1.8053e-17 
8302.00 7.0316e-17 
8303.50 5.7171e-17 
8305.00 4.1299e-17 
8306.50 3.1555e-17 
8308.00 3.6143e-17 
8309.50 2.0974e-17 
8311.00 1.6526e-17 
8312.50 1.5113e-17 
8314.00 1.3640e-17 
8315.50 3.2526e-17 
8317.00 2.9602e-17 
8318.50 2.6362e-17 
8320.00 2.6900e-17 
8321.50 4.3339e-17 
8323.00 2.9513e-17 
8324.50 2.4719e-17 
8326.00 2.6904e-17 
8327.50 3.4988e-17 
8329.00 2.8113e-17 
8330.50 4.0746e-17 
8332.00 3.1257e-17 
8333.50 1.9281e-17 
8335.00 2.6119e-17 
8336.50 2.6838e-17 
8338.00 2.4329e-17 
8339.50 2.4713e-17 
8341.00 2.8775e-17 
8342.50 3.9891e-17 
8344.00 1.6379e-17 
8345.50 1.6238e-17 
8347.00 2.8951e-17 
8348.50 5.3117e-17 
8350.00 4.3553e-17 
8351.50 2.1944e-17 
8353.00 2.4797e-17 
8354.50 4.0849e-17 
8356.00 2.2969e-17 
8357.50 2.4737e-17 
8359.00 2.4183e-17 
8360.50 2.4661e-17 
8362.00 2.7870e-17 
8363.50 3.4996e-17 
8365.00 3.9303e-17 
8366.50 3.5407e-17 
8368.00 2.8235e-17 
8369.50 3.2100e-17 
8371.00 2.6015e-17 
8372.50 2.7719e-17 
8374.00 3.0246e-17 
8375.50 3.1298e-17 
8377.00 2.8448e-17 
8378.50 2.2830e-17 
8380.00 2.5544e-17 
8381.50 2.9876e-17 
8383.00 1.4273e-17 
8384.50 8.2500e-18 
8386.00 2.6798e-17 
8387.50 3.7441e-17 
8389.00 2.5215e-17 
8390.50 2.7319e-17 
8392.00 2.9293e-17 
8393.50 3.0844e-17 
8395.00 3.2167e-17 
8396.50 3.4268e-17 
8398.00 2.8830e-17 
8399.50 2.6760e-17 
8401.00 2.6647e-17 
8402.50 2.8729e-17 
8404.00 5.5508e-17 
8405.50 3.0512e-17 
8407.00 2.5891e-17 
8408.50 3.7235e-17 
8410.00 2.6183e-17 
8411.50 3.0413e-17 
8413.00 2.8393e-17 
8414.50 2.5897e-17 
8416.00 2.7408e-17 
8417.50 2.7946e-17 
8419.00 4.0728e-17 
8420.50 3.9310e-17 
8422.00 2.3275e-17 
8423.50 3.3457e-17 
8425.00 2.9012e-17 
8426.50 2.8817e-17 
8428.00 2.6968e-17 
8429.50 1.1003e-17 
8431.00 3.8549e-17 
8432.50 -7.6087e-19
8434.00 -8.7878e-18
8435.50 4.8540e-17 
8437.00 2.1735e-17 
8438.50 2.8656e-17 
8440.00 2.9895e-17 
8441.50 2.7836e-17 
8443.00 3.3457e-17 
8444.50 3.0628e-17 
8446.00 2.8942e-17 
8447.50 2.7276e-17 
8449.00 2.4745e-17 
8450.50 3.4031e-17 
8452.00 3.0053e-17 
8453.50 2.9786e-17 
8455.00 3.4886e-17 
8456.50 2.3460e-17 
8458.00 2.8614e-17 
8459.50 2.6863e-17 
8461.00 2.3485e-17 
8462.50 3.3151e-17 
8464.00 2.4307e-17 
8465.50 2.2560e-17 
8467.00 2.1609e-17 
8468.50 1.8472e-17 
8470.00 3.9309e-17 
8471.50 3.6834e-17 
8473.00 3.2400e-17 
8474.50 2.7987e-17 
8476.00 2.5147e-17 
8477.50 2.7640e-17 
8479.00 3.0380e-17 
8480.50 3.1741e-17 
8482.00 2.4555e-17 
8483.50 2.6109e-17 
8485.00 2.6800e-17 
8486.50 2.7678e-17 
8488.00 2.9605e-17 
8489.50 2.9530e-17 
8491.00 3.5063e-17 
8492.50 3.4583e-17 
8494.00 2.5953e-17 
8495.50 2.8826e-17 
8497.00 3.6119e-17 
8498.50 3.8989e-17 
8500.00 3.7941e-17 
8501.50 3.0753e-17 
8503.00 2.8416e-17 
8504.50 3.0449e-17 
8506.00 3.2244e-17 
8507.50 2.7530e-17 
8509.00 3.6133e-17 
8510.50 2.6344e-17 
8512.00 2.4862e-17 
8513.50 4.4790e-17 
8515.00 2.5794e-17 
8516.50 3.2715e-17 
8518.00 3.1860e-17 
8519.50 2.1781e-17 
8521.00 2.2538e-17 
8522.50 3.2012e-17 
8524.00 3.0096e-17 
8525.50 2.3056e-17 
8527.00 2.9971e-17 
8528.50 1.9406e-17 
8530.00 2.1788e-17 
8531.50 2.8283e-17 
8533.00 3.3463e-17 
8534.50 3.1595e-17 
8536.00 3.3169e-17 
8537.50 3.6558e-17 
8539.00 4.2390e-17 
8540.50 3.1687e-17 
8542.00 3.6215e-17 
8543.50 3.5090e-17 
8545.00 2.5739e-17 
8546.50 3.4178e-17 
8548.00 2.4559e-17 
8549.50 2.3065e-17 
8551.00 2.7586e-17 
8552.50 2.6173e-17 
8554.00 2.7560e-17 
8555.50 2.7366e-17 
8557.00 2.6430e-17 
8558.50 2.5689e-17 
8560.00 2.7340e-17 
8561.50 2.6898e-17 
8563.00 2.7751e-17 
8564.50 3.5192e-17 
8566.00 2.4383e-17 
8567.50 3.0855e-17 
8569.00 3.6275e-17 
8570.50 3.2771e-17 
8572.00 2.9346e-17 
8573.50 2.6742e-17 
8575.00 2.7905e-17 
8576.50 3.4351e-17 
8578.00 2.2808e-17 
8579.50 2.8604e-17 
8581.00 2.9534e-17 
8582.50 2.5420e-17 
8584.00 3.4332e-17 
8585.50 3.5873e-17 
8587.00 3.5060e-17 
8588.50 3.2463e-17 
8590.00 2.8545e-17 
8591.50 3.1412e-17 
8593.00 3.2039e-17 
8594.50 3.2680e-17 
8596.00 4.1095e-17 
8597.50 2.5889e-17 
8599.00 2.9951e-17 
8600.50 3.8681e-17 
8602.00 3.7234e-17 
8603.50 3.8787e-17 
8605.00 3.0178e-17 
8606.50 2.2315e-17 
8608.00 2.4982e-17 
8609.50 2.7375e-17 
8611.00 3.3708e-17 
8612.50 3.5962e-17 
8614.00 2.6706e-17 
8615.50 3.0117e-17 
8617.00 3.0311e-17 
8618.50 2.7299e-17 
8620.00 1.9035e-17 
8621.50 3.1762e-17 
8623.00 3.1523e-17 
8624.50 2.8697e-17 
8626.00 2.3456e-17 
8627.50 1.2763e-17 
8629.00 1.1585e-17 
8630.50 1.8142e-17 
8632.00 3.3491e-17 
8633.50 1.8460e-17 
8635.00 3.1333e-17 
8636.50 4.0288e-17 
8638.00 4.4806e-17 
8639.50 3.6960e-17 
8641.00 3.9280e-17 
8642.50 4.0361e-17 
8644.00 4.0172e-17 
8645.50 3.3473e-17 
8647.00 3.2442e-17 
8648.50 3.7990e-17 
8650.00 4.6785e-17 
8651.50 2.7358e-17 
8653.00 2.6219e-17 
8654.50 2.6473e-17 
8656.00 2.7677e-17 
8657.50 2.9609e-17 
8659.00 2.9693e-17 
8660.50 2.7827e-17 
8662.00 2.5011e-17 
8663.50 2.4332e-17 
8665.00 3.4913e-17 
8666.50 3.7432e-17 
8668.00 3.3488e-17 
8669.50 7.3804e-18 
8671.00 9.0315e-18 
8672.50 1.9454e-17 
8674.00 3.1679e-17 
8675.50 1.9612e-17 
8677.00 3.3573e-17 
8678.50 3.2477e-17 
8680.00 2.5992e-17 
8681.50 3.3424e-17 
8683.00 2.9100e-17 
8684.50 1.9183e-17 
8686.00 9.6631e-18 
8687.50 2.6638e-17 
8689.00 3.7930e-17 
8690.50 3.4232e-17 
8692.00 2.4837e-17 
8693.50 2.5595e-17 
8695.00 2.9286e-17 
8696.50 2.9631e-17 
8698.00 2.7779e-17 
8699.50 2.0186e-17 
8701.00 2.1854e-17 
8702.50 2.2204e-17 
8704.00 2.2822e-17 
8705.50 3.2297e-17 
8707.00 3.2826e-17 
8708.50 2.8707e-17 
8710.00 2.2580e-17 
8711.50 2.2799e-17 
8713.00 2.7472e-17 
8714.50 2.6767e-17 
8716.00 2.3356e-17 
8717.50 2.5953e-17 
8719.00 3.1720e-17 
8720.50 3.6830e-17 
8722.00 4.0944e-17 
8723.50 2.9763e-17 
8725.00 3.2347e-17 
8726.50 2.4902e-17 
8728.00 1.0935e-17 
8729.50 3.7286e-17 
8731.00 2.8947e-17 
8732.50 2.5854e-17 
8734.00 2.7109e-17 
8735.50 2.5796e-17 
8737.00 2.6991e-17 
8738.50 3.1444e-17 
8740.00 3.9472e-17 
8741.50 1.9162e-17 
8743.00 2.4821e-17 
8744.50 3.0403e-17 
8746.00 3.5589e-17 
8747.50 3.1181e-17 
8749.00 4.0488e-17 
8750.50 4.2108e-17 
8752.00 3.0327e-17 
8753.50 2.5986e-17 
8755.00 3.0379e-17 
8756.50 2.8091e-17 
8758.00 9.8901e-18 
8759.50 4.3477e-17 
8761.00 3.3870e-17 
8762.50 2.4163e-17 
8764.00 3.0032e-17 
8765.50 1.3447e-17 
8767.00 2.3958e-17 
8768.50 3.8257e-17 
8770.00 4.7028e-17 
8771.50 3.8451e-17 
8773.00 2.8304e-17 
8774.50 1.9515e-17 
8776.00 2.2137e-17 
8777.50 5.2642e-17 
8779.00 4.9290e-17 
8780.50 3.3410e-17 
8782.00 2.9551e-17 
8783.50 1.9216e-17 
8785.00 1.8205e-17 
8786.50 2.2839e-17 
8788.00 3.3332e-17 
8789.50 1.9413e-17 
8791.00 1.8614e-17 
8792.50 2.9059e-17 
8794.00 3.2286e-17 
8795.50 3.1919e-17 
8797.00 2.9712e-17 
8798.50 2.4893e-17 
8800.00 2.5847e-17 
8801.50 3.1649e-17 
8803.00 3.2992e-17 
8804.50 2.4516e-17 
8806.00 2.8517e-17 
8807.50 2.6097e-17 
8809.00 2.2264e-17 
8810.50 1.6483e-17 
8812.00 3.0081e-17 
8813.50 2.8925e-17 
8815.00 2.5533e-17 
8816.50 3.1720e-17 
8818.00 3.0659e-17 
8819.50 2.9905e-17 
8821.00 2.9322e-17 
8822.50 2.9666e-17 
8824.00 3.1355e-17 
8825.50 3.5981e-17 
8827.00 4.3123e-17 
8828.50 6.0149e-17 
8830.00 5.6292e-17 
8831.50 4.3948e-17 
8833.00 1.8741e-17 
8834.50 3.9653e-17 
8836.00 2.0836e-17 
8837.50 1.5746e-17 
8839.00 4.9885e-17 
8840.50 3.9613e-18 
8842.00 1.3591e-17 
8843.50 2.8528e-17 
8845.00 2.0280e-17 
8846.50 2.9163e-17 
8848.00 3.2306e-17 
8849.50 3.3202e-17 
8851.00 3.1536e-17 
8852.50 4.1261e-17 
8854.00 3.9434e-17 
8855.50 2.9274e-17 
8857.00 2.7910e-17 
8858.50 2.7896e-17 
8860.00 3.1289e-17 
8861.50 4.0127e-17 
8863.00 3.0988e-17 
8864.50 2.8922e-17 
8866.00 2.8347e-17 
8867.50 3.0077e-17 
8869.00 5.6225e-18 
8870.50 8.8983e-18 
8872.00 1.6855e-17 
8873.50 8.9031e-18 
8875.00 2.9377e-17 
8876.50 3.4085e-17 
8878.00 3.0685e-17 
8879.50 2.9045e-17 
8881.00 2.1993e-17 
8882.50 2.2422e-17 
8884.00 3.1881e-17 
8885.50 4.8401e-17 
8887.00 4.3307e-17 
8888.50 4.0983e-17 
8890.00 5.0201e-17 
8891.50 -2.4559e-17
8893.00 -2.8564e-19
8894.50 3.9965e-17 
8896.00 2.7032e-17 
8897.50 3.1499e-17 
8899.00 2.9329e-17 
8900.50 2.3451e-17 
8902.00 3.3962e-17 
8903.50 3.7015e-17 
8905.00 3.0825e-17 
8906.50 1.0590e-17 
8908.00 4.1641e-17 
8909.50 2.6520e-17 
8911.00 1.2046e-17 
8912.50 1.4702e-17 
8914.00 1.8945e-17 
8915.50 1.6275e-17 
8917.00 1.5443e-17 
8918.50 6.4625e-17 
8920.00 1.7800e-17 
8921.50 1.1678e-19 
8923.00 4.4258e-18 
8924.50 3.1703e-17 
8926.00 2.4612e-17 
8927.50 2.0690e-17 
8929.00 2.6171e-17 
8930.50 3.9220e-17 
8932.00 3.1340e-17 
8933.50 2.1476e-17 
8935.00 2.9749e-17 
8936.50 2.8806e-17 
8938.00 2.3927e-17 
8939.50 1.6137e-17 
8941.00 3.7331e-17 
8942.50 3.8933e-17 
8944.00 4.2145e-17 
8945.50 4.9038e-17 
8947.00 2.1980e-17 
8948.50 1.4780e-17 
8950.00 1.2841e-17 
8951.50 2.2409e-17 
8953.00 2.5047e-17 
8954.50 3.0180e-17 
8956.00 3.7074e-17 
8957.50 2.9329e-17 
8959.00 6.4073e-17 
8960.50 6.6504e-17 
8962.00 1.4465e-17 
8963.50 2.1958e-17 
8965.00 2.9114e-17 
8966.50 3.4909e-17 
8968.00 3.3135e-17 
8969.50 3.1283e-17 
8971.00 3.2550e-17 
8972.50 3.5697e-17 
8974.00 2.5309e-17 
8975.50 2.1417e-17 
8977.00 2.0270e-17 
8978.50 2.4132e-17 
8980.00 1.8204e-17 
8981.50 2.3895e-17 
8983.00 3.0454e-17 
8984.50 2.6401e-17 
8986.00 3.4599e-17 
8987.50 4.0769e-17 
8989.00 4.6574e-17 
8990.50 3.7971e-17 
8992.00 2.5764e-17 
8993.50 1.9698e-17 
8995.00 2.8745e-17 
8996.50 1.0596e-17 
8998.00 1.2443e-17 
8999.50 2.0976e-17 
9001.00 4.3014e-17 
9002.50 4.2213e-17 
9004.00 4.1940e-17 
9005.50 4.2179e-17 
9007.00 3.5722e-18 
9008.50 2.8822e-17 
9010.00 4.8705e-17 
9011.50 1.9474e-17 
9013.00 2.4245e-17 
9014.50 2.3401e-17 
9016.00 1.9757e-17 
9017.50 1.9838e-17 
9019.00 2.2830e-17 
9020.50 2.5985e-17 
9022.00 3.0272e-17 
9023.50 3.1867e-17 
9025.00 2.5043e-17 
9026.50 1.6249e-17 
9028.00 9.8591e-18 
9029.50 2.2576e-17 
9031.00 2.3710e-17 
9032.50 1.3260e-17 
9034.00 1.4823e-17 
9035.50 2.7778e-17 
9037.00 3.6087e-17 
9038.50 1.7680e-17 
9040.00 3.6425e-17 
9041.50 3.5216e-17 
9043.00 2.2861e-17 
9044.50 2.3589e-17 
9046.00 1.9270e-17 
9047.50 2.3250e-17 
9049.00 5.0638e-17 
9050.50 4.7585e-17 
9052.00 4.1665e-17 
9053.50 3.4344e-17 
9055.00 2.8436e-17 
9056.50 2.6019e-17 
9058.00 2.3181e-17 
9059.50 1.8763e-17 
9061.00 3.7313e-17 
9062.50 3.6272e-17 
9064.00 3.0466e-17 
9065.50 1.4854e-17 
9067.00 3.0519e-17 
9068.50 3.7744e-17 
9070.00 3.8128e-17 
9071.50 3.4813e-17 
9073.00 2.0991e-17 
9074.50 1.0998e-17 
9076.00 3.1192e-17 
9077.50 2.4689e-17 
9079.00 2.4405e-17 
9080.50 2.8744e-17 
9082.00 3.0562e-17 
9083.50 3.0766e-17 
9085.00 2.8647e-17 
9086.50 1.6203e-17 
9088.00 1.6401e-17 
9089.50 2.6102e-17 
9091.00 4.3182e-17 
9092.50 3.8410e-17 
9094.00 3.9262e-17 
9095.50 3.5665e-17 
9097.00 1.4680e-17 
9098.50 1.6142e-17 
9100.00 2.3817e-17 
9101.50 3.5717e-17 
9103.00 -2.2537e-18
9104.50 2.3124e-17 
9106.00 3.8830e-17 
9107.50 2.7116e-17 
9109.00 2.2933e-17 
9110.50 2.7939e-17 
9112.00 3.7490e-17 
9113.50 3.2455e-17 
9115.00 1.8880e-17 
9116.50 1.4003e-17 
9118.00 3.2292e-17 
9119.50 1.6438e-17 
9121.00 1.6057e-17 
9122.50 2.1762e-17 
9124.00 4.1751e-17 
9125.50 3.5075e-17 
9127.00 2.9225e-17 
9128.50 2.4208e-17 
9130.00 3.3793e-17 
9131.50 3.2396e-17 
9133.00 2.6249e-17 
9134.50 1.5439e-17 
9136.00 2.3758e-17 
9137.50 2.7871e-17 
9139.00 1.9540e-17 
9140.50 2.4755e-17 
9142.00 3.0162e-17 
9143.50 3.6680e-17 
9145.00 1.0002e-17 
9146.50 2.8685e-17 
9148.00 4.2427e-17 
9149.50 3.7889e-17 
9151.00 2.3940e-17 
9152.50 2.7700e-17 
9154.00 4.2447e-17 
9155.50 3.6370e-17 
9157.00 2.1590e-17 
9158.50 1.2347e-17 
9160.00 2.9942e-17 
9161.50 2.4994e-17 
9163.00 2.3357e-17 
9164.50 2.3680e-17 
9166.00 7.8718e-18 
9167.50 5.2784e-18 
9169.00 7.7155e-18 
9170.50 3.8221e-17 
9172.00 3.8010e-17 
9173.50 3.6530e-17 
9175.00 3.3113e-17 
9176.50 2.7744e-17 
9178.00 2.8179e-17 
9179.50 2.9762e-17 
9181.00 3.4178e-17 
9182.50 0
9184.00 0
9185.50 0
9187.00 0
9188.50 0
9190.00 0
9191.50 0
9193.00 0
9194.50 0
9196.00 0
9197.50 0
9199.00 0
9200.50 0
9202.00 0
9203.50 0
9205.00 0
9206.50 0
9208.00 0
9209.50 0
9211.00 0
9212.50 0
9214.00 0
9215.50 0
9217.00 0
9218.50 0
9220.00 0
9221.50 0
9223.00 0
9224.50 0
9226.00 0
9227.50 0
9229.00 0
9230.50 0
9232.00 0
9233.50 0
9235.00 0
9236.50 0
9238.00 0
9239.50 0
9241.00 0
9242.50 0
9244.00 0
9245.50 0
9247.00 0
9248.50 0
9250.00 0
9251.50 0
9253.00 0
9254.50 0
9256.00 0
9257.50 0
9259.00 0
9260.50 0
9262.00 0
9263.50 0
9265.00 0
9266.50 0
9268.00 0
9269.50 0
9271.00 0
9272.50 0
9274.00 0
9275.50 0
9277.00 0
9278.50 0
9280.00 0
9281.50 0
9283.00 0
9284.50 0
9286.00 0
9287.50 0
9289.00 0
9290.50 0
9292.00 0
9293.50 0
9295.00 0
9296.50 0
9298.00 0
9299.50 0
9301.00 0
9302.50 0
9304.00 0
9305.50 0
9307.00 0
9308.50 0
9310.00 0
9311.50 0
9313.00 0
9314.50 0
9316.00 0
9317.50 0
9319.00 0
9320.50 0
9322.00 0
9323.50 0
9325.00 0
9326.50 0
9328.00 0
9329.50 0
9331.00 0
9332.50 0
9334.00 0
9335.50 0
9337.00 0
9338.50 0
9340.00 0
9341.50 0
9343.00 0
9344.50 0
9346.00 0
9347.50 0
9349.00 0
9350.50 0
9352.00 0
9353.50 0
9355.00 0
9356.50 0
9358.00 0
9359.50 0
9361.00 0
9362.50 0
9364.00 0
9365.50 0
9367.00 0
9368.50 0
9370.00 0
9371.50 0
9373.00 0
9374.50 0
9376.00 0
9377.50 0
9379.00 0
9380.50 0
9382.00 0
9383.50 0
9385.00 0
9386.50 0
9388.00 0
9389.50 0
9391.00 0
9392.50 0
9394.00 0
9395.50 0
9397.00 0
9398.50 0
9400.00 0
9401.50 0
9403.00 0
9404.50 0
9406.00 0
9407.50 0
9409.00 0
9410.50 0
9412.00 0
9413.50 0
9415.00 0
9416.50 0
9418.00 0
9419.50 0
9421.00 0
9422.50 0
9424.00 0
9425.50 0
9427.00 0
9428.50 0
9430.00 0
9431.50 0
9433.00 0
9434.50 0
9436.00 0
9437.50 0
9439.00 0
9440.50 0
9442.00 0
9443.50 0
9445.00 0
9446.50 0
9448.00 0
9449.50 0
9451.00 0
9452.50 0
9454.00 0
9455.50 0
9457.00 0
9458.50 0
9460.00 0
9461.50 0
9463.00 0
9464.50 0
9466.00 0
9467.50 0
9469.00 0
9470.50 0
9472.00 0
9473.50 0
9475.00 0
9476.50 0
9478.00 0
9479.50 0
9481.00 0
9482.50 0
9484.00 0
9485.50 0
9487.00 0
9488.50 0
9490.00 0
9491.50 0
9493.00 0
9494.50 0
9496.00 0
9497.50 0
9499.00 0
9500.50 0
9502.00 0
9503.50 0
9505.00 0
9506.50 0
9508.00 0
9509.50 0
9511.00 0
9512.50 0
9514.00 0
9515.50 0
9517.00 0
9518.50 0
9520.00 0
9521.50 0
9523.00 0
9524.50 0
9526.00 0
9527.50 0
9529.00 0
9530.50 0
9532.00 0
9533.50 0
9535.00 0
9536.50 0
9538.00 0
9539.50 0
9541.00 0
9542.50 0
9544.00 0
9545.50 0
9547.00 0
9548.50 0
9550.00 0
9551.50 0
9553.00 0
9554.50 0
9556.00 0
9557.50 0
9559.00 0
9560.50 0
9562.00 0
9563.50 0
9565.00 0
9566.50 0
9568.00 0
9569.50 0
9571.00 0
9572.50 0
9574.00 0
9575.50 0
9577.00 0
9578.50 0
9580.00 0
9581.50 0
9583.00 0
9584.50 0
9586.00 0
9587.50 0
9589.00 0
9590.50 0
9592.00 0
9593.50 0
9595.00 0
9596.50 0
9598.00 0
9599.50 0
