Wavelength (Angstroms) Flux (erg/s/cm2/A)
# start
3400.00 0
3401.50 0
3403.00 0
3404.50 0
3406.00 0
3407.50 0
3409.00 0
3410.50 0
3412.00 0
3413.50 0
3415.00 0
3416.50 0
3418.00 0
3419.50 0
3421.00 0
3422.50 0
3424.00 0
3425.50 0
3427.00 0
3428.50 0
3430.00 0
3431.50 0
3433.00 0
3434.50 0
3436.00 0
3437.50 0
3439.00 0
3440.50 0
3442.00 0
3443.50 0
3445.00 0
3446.50 0
3448.00 0
3449.50 0
3451.00 0
3452.50 0
3454.00 0
3455.50 0
3457.00 0
3458.50 0
3460.00 0
3461.50 0
3463.00 0
3464.50 0
3466.00 0
3467.50 0
3469.00 0
3470.50 0
3472.00 0
3473.50 0
3475.00 0
3476.50 0
3478.00 0
3479.50 0
3481.00 0
3482.50 0
3484.00 0
3485.50 0
3487.00 0
3488.50 0
3490.00 0
3491.50 0
3493.00 0
3494.50 0
3496.00 0
3497.50 0
3499.00 0
3500.50 0
3502.00 0
3503.50 0
3505.00 0
3506.50 0
3508.00 0
3509.50 0
3511.00 0
3512.50 0
3514.00 0
3515.50 0
3517.00 0
3518.50 0
3520.00 0
3521.50 0
3523.00 0
3524.50 0
3526.00 0
3527.50 0
3529.00 0
3530.50 0
3532.00 0
3533.50 0
3535.00 0
3536.50 0
3538.00 0
3539.50 0
3541.00 0
3542.50 0
3544.00 0
3545.50 0
3547.00 0
3548.50 0
3550.00 0
3551.50 0
3553.00 0
3554.50 0
3556.00 0
3557.50 0
3559.00 0
3560.50 0
3562.00 0
3563.50 0
3565.00 0
3566.50 0
3568.00 0
3569.50 0
3571.00 0
3572.50 0
3574.00 0
3575.50 0
3577.00 0
3578.50 0
3580.00 0
3581.50 0
3583.00 0
3584.50 0
3586.00 0
3587.50 0
3589.00 0
3590.50 0
3592.00 0
3593.50 0
3595.00 0
3596.50 0
3598.00 0
3599.50 0
3601.00 0
3602.50 0
3604.00 0
3605.50 0
3607.00 0
3608.50 0
3610.00 0
3611.50 0
3613.00 0
3614.50 0
3616.00 0
3617.50 0
3619.00 0
3620.50 0
3622.00 0
3623.50 0
3625.00 0
3626.50 0
3628.00 0
3629.50 0
3631.00 0
3632.50 0
3634.00 0
3635.50 0
3637.00 0
3638.50 0
3640.00 0
3641.50 0
3643.00 0
3644.50 0
3646.00 0
3647.50 0
3649.00 0
3650.50 0
3652.00 0
3653.50 0
3655.00 0
3656.50 0
3658.00 0
3659.50 0
3661.00 0
3662.50 0
3664.00 0
3665.50 0
3667.00 0
3668.50 0
3670.00 0
3671.50 0
3673.00 0
3674.50 0
3676.00 0
3677.50 0
3679.00 0
3680.50 0
3682.00 0
3683.50 0
3685.00 0
3686.50 0
3688.00 0
3689.50 0
3691.00 0
3692.50 0
3694.00 0
3695.50 0
3697.00 0
3698.50 0
3700.00 0
3701.50 0
3703.00 0
3704.50 0
3706.00 0
3707.50 0
3709.00 0
3710.50 0
3712.00 0
3713.50 0
3715.00 0
3716.50 0
3718.00 0
3719.50 0
3721.00 0
3722.50 0
3724.00 0
3725.50 0
3727.00 0
3728.50 0
3730.00 0
3731.50 0
3733.00 0
3734.50 0
3736.00 0
3737.50 0
3739.00 0
3740.50 0
3742.00 0
3743.50 0
3745.00 0
3746.50 0
3748.00 0
3749.50 0
3751.00 0
3752.50 0
3754.00 0
3755.50 0
3757.00 0
3758.50 0
3760.00 0
3761.50 0
3763.00 0
3764.50 0
3766.00 0
3767.50 0
3769.00 0
3770.50 0
3772.00 0
3773.50 0
3775.00 0
3776.50 0
3778.00 0
3779.50 0
3781.00 0
3782.50 0
3784.00 0
3785.50 0
3787.00 0
3788.50 0
3790.00 0
3791.50 0
3793.00 0
3794.50 0
3796.00 0
3797.50 0
3799.00 0
3800.50 0
3802.00 0
3803.50 0
3805.00 0
3806.50 0
3808.00 0
3809.50 0
3811.00 0
3812.50 0
3814.00 0
3815.50 0
3817.00 8.1368e-17 
3818.50 9.7109e-17 
3820.00 5.4931e-17 
3821.50 9.0582e-17 
3823.00 5.2575e-17 
3824.50 9.8877e-17 
3826.00 6.5350e-17 
3827.50 6.8405e-17 
3829.00 8.6740e-17 
3830.50 9.4956e-17 
3832.00 4.8422e-17 
3833.50 7.3521e-17 
3835.00 5.5433e-17 
3836.50 6.1757e-17 
3838.00 8.4537e-17 
3839.50 7.1749e-17 
3841.00 5.5388e-17 
3842.50 4.1660e-17 
3844.00 9.5693e-17 
3845.50 7.2330e-17 
3847.00 8.5374e-17 
3848.50 5.5693e-17 
3850.00 7.4631e-17 
3851.50 7.1789e-17 
3853.00 5.6886e-17 
3854.50 3.8327e-17 
3856.00 7.0767e-17 
3857.50 7.4203e-17 
3859.00 6.8970e-17 
3860.50 6.7478e-17 
3862.00 3.9774e-17 
3863.50 7.3763e-17 
3865.00 5.4107e-17 
3866.50 6.2415e-17 
3868.00 8.6889e-17 
3869.50 5.9699e-17 
3871.00 4.1657e-17 
3872.50 3.5819e-17 
3874.00 1.0087e-16 
3875.50 8.4487e-17 
3877.00 1.0492e-16 
3878.50 8.7437e-17 
3880.00 3.0640e-17 
3881.50 7.6675e-17 
3883.00 1.1595e-16 
3884.50 6.9915e-17 
3886.00 6.7251e-17 
3887.50 6.3127e-17 
3889.00 8.8688e-17 
3890.50 9.5365e-17 
3892.00 9.1785e-17 
3893.50 9.3542e-17 
3895.00 9.1457e-17 
3896.50 6.6870e-17 
3898.00 3.0459e-17 
3899.50 9.0891e-17 
3901.00 1.2747e-16 
3902.50 8.8424e-17 
3904.00 9.9120e-17 
3905.50 6.5086e-17 
3907.00 1.3193e-16 
3908.50 1.1276e-16 
3910.00 9.7892e-17 
3911.50 8.8557e-17 
3913.00 9.7524e-17 
3914.50 1.2099e-16 
3916.00 9.0329e-17 
3917.50 1.0855e-16 
3919.00 9.1878e-17 
3920.50 9.4546e-17 
3922.00 8.3286e-17 
3923.50 9.8384e-17 
3925.00 9.5544e-17 
3926.50 1.2182e-16 
3928.00 9.7959e-17 
3929.50 1.2353e-16 
3931.00 1.3227e-16 
3932.50 1.1854e-16 
3934.00 1.4066e-16 
3935.50 1.0403e-16 
3937.00 9.7152e-17 
3938.50 1.2478e-16 
3940.00 9.3109e-17 
3941.50 6.2268e-17 
3943.00 1.1540e-16 
3944.50 1.0622e-16 
3946.00 1.1515e-16 
3947.50 1.1697e-16 
3949.00 1.2510e-16 
3950.50 1.3162e-16 
3952.00 1.4771e-16 
3953.50 1.3145e-16 
3955.00 1.0965e-16 
3956.50 1.1841e-16 
3958.00 1.0759e-16 
3959.50 1.0034e-16 
3961.00 1.2569e-16 
3962.50 1.5617e-16 
3964.00 1.1678e-16 
3965.50 1.5397e-16 
3967.00 1.3296e-16 
3968.50 1.1183e-16 
3970.00 1.2207e-16 
3971.50 1.4362e-16 
3973.00 1.1103e-16 
3974.50 1.1048e-16 
3976.00 7.4492e-17 
3977.50 7.2932e-17 
3979.00 9.7589e-17 
3980.50 9.7350e-17 
3982.00 7.9317e-17 
3983.50 5.7759e-17 
3985.00 6.4835e-17 
3986.50 1.0372e-16 
3988.00 1.3325e-16 
3989.50 1.0384e-16 
3991.00 1.1348e-16 
3992.50 1.3189e-16 
3994.00 9.2727e-17 
3995.50 8.2617e-17 
3997.00 9.3048e-17 
3998.50 9.7273e-17 
4000.00 8.4469e-17 
4001.50 8.6844e-17 
4003.00 8.8160e-17 
4004.50 8.6783e-17 
4006.00 7.3342e-17 
4007.50 6.3185e-17 
4009.00 7.8488e-17 
4010.50 1.0626e-16 
4012.00 7.4233e-17 
4013.50 8.3927e-17 
4015.00 7.8684e-17 
4016.50 8.3194e-17 
4018.00 8.1563e-17 
4019.50 8.2999e-17 
4021.00 6.6238e-17 
4022.50 6.0715e-17 
4024.00 8.0716e-17 
4025.50 5.7144e-17 
4027.00 6.0189e-17 
4028.50 6.5474e-17 
4030.00 7.9518e-17 
4031.50 9.5657e-17 
4033.00 7.9462e-17 
4034.50 6.1180e-17 
4036.00 9.9129e-17 
4037.50 7.5462e-17 
4039.00 7.4291e-17 
4040.50 5.4016e-17 
4042.00 7.3969e-17 
4043.50 5.3811e-17 
4045.00 7.0751e-17 
4046.50 4.2522e-17 
4048.00 4.2905e-17 
4049.50 6.2523e-17 
4051.00 6.6395e-17 
4052.50 6.7147e-17 
4054.00 6.0860e-17 
4055.50 6.7271e-17 
4057.00 5.8339e-17 
4058.50 8.2055e-17 
4060.00 8.7247e-17 
4061.50 6.6349e-17 
4063.00 6.4434e-17 
4064.50 7.0038e-17 
4066.00 5.5791e-17 
4067.50 6.4927e-17 
4069.00 7.2994e-17 
4070.50 5.9176e-17 
4072.00 5.4044e-17 
4073.50 5.9049e-17 
4075.00 6.2501e-17 
4076.50 4.8140e-17 
4078.00 7.2038e-17 
4079.50 5.3744e-17 
4081.00 6.3345e-17 
4082.50 5.7113e-17 
4084.00 4.1774e-17 
4085.50 5.5292e-17 
4087.00 4.6541e-17 
4088.50 5.6927e-17 
4090.00 6.5680e-17 
4091.50 5.6726e-17 
4093.00 5.1573e-17 
4094.50 6.4396e-17 
4096.00 6.2173e-17 
4097.50 6.9417e-17 
4099.00 5.5413e-17 
4100.50 7.7882e-17 
4102.00 6.0958e-17 
4103.50 6.5232e-17 
4105.00 7.5649e-17 
4106.50 7.7666e-17 
4108.00 6.3241e-17 
4109.50 5.8254e-17 
4111.00 6.2093e-17 
4112.50 6.6881e-17 
4114.00 6.4676e-17 
4115.50 5.9132e-17 
4117.00 6.7833e-17 
4118.50 7.0298e-17 
4120.00 5.1838e-17 
4121.50 4.7405e-17 
4123.00 5.5901e-17 
4124.50 5.2640e-17 
4126.00 6.0050e-17 
4127.50 5.0658e-17 
4129.00 7.2300e-17 
4130.50 5.6896e-17 
4132.00 5.7604e-17 
4133.50 8.3948e-17 
4135.00 6.2072e-17 
4136.50 6.0903e-17 
4138.00 6.4791e-17 
4139.50 6.9639e-17 
4141.00 5.3834e-17 
4142.50 6.5592e-17 
4144.00 6.2666e-17 
4145.50 5.2236e-17 
4147.00 4.9795e-17 
4148.50 6.0051e-17 
4150.00 6.6123e-17 
4151.50 5.6247e-17 
4153.00 4.0448e-17 
4154.50 5.3484e-17 
4156.00 6.5932e-17 
4157.50 6.3257e-17 
4159.00 4.4730e-17 
4160.50 5.1781e-17 
4162.00 7.2005e-17 
4163.50 6.0486e-17 
4165.00 7.1544e-17 
4166.50 5.7070e-17 
4168.00 6.9109e-17 
4169.50 5.4167e-17 
4171.00 6.9140e-17 
4172.50 5.9359e-17 
4174.00 4.6783e-17 
4175.50 7.2230e-17 
4177.00 6.5930e-17 
4178.50 6.4938e-17 
4180.00 6.5392e-17 
4181.50 5.1454e-17 
4183.00 5.9410e-17 
4184.50 7.0415e-17 
4186.00 7.8822e-17 
4187.50 6.2197e-17 
4189.00 7.4932e-17 
4190.50 6.2873e-17 
4192.00 5.5089e-17 
4193.50 5.1121e-17 
4195.00 5.5519e-17 
4196.50 7.1243e-17 
4198.00 8.0142e-17 
4199.50 6.5227e-17 
4201.00 5.8215e-17 
4202.50 5.0398e-17 
4204.00 5.6016e-17 
4205.50 5.7942e-17 
4207.00 5.5130e-17 
4208.50 5.0229e-17 
4210.00 5.9657e-17 
4211.50 6.7614e-17 
4213.00 6.4021e-17 
4214.50 7.9727e-17 
4216.00 6.8537e-17 
4217.50 4.6267e-17 
4219.00 6.8493e-17 
4220.50 5.8438e-17 
4222.00 6.0231e-17 
4223.50 7.5965e-17 
4225.00 6.0808e-17 
4226.50 6.8336e-17 
4228.00 6.4526e-17 
4229.50 6.2735e-17 
4231.00 5.0161e-17 
4232.50 6.2212e-17 
4234.00 6.4154e-17 
4235.50 5.4294e-17 
4237.00 7.2876e-17 
4238.50 5.4313e-17 
4240.00 6.5021e-17 
4241.50 7.0218e-17 
4243.00 5.5706e-17 
4244.50 5.4517e-17 
4246.00 5.4898e-17 
4247.50 5.2411e-17 
4249.00 6.7431e-17 
4250.50 5.3817e-17 
4252.00 5.6237e-17 
4253.50 5.2983e-17 
4255.00 6.2648e-17 
4256.50 5.4632e-17 
4258.00 6.5355e-17 
4259.50 7.0591e-17 
4261.00 5.7937e-17 
4262.50 7.1762e-17 
4264.00 8.5755e-17 
4265.50 7.0057e-17 
4267.00 4.4951e-17 
4268.50 4.4268e-17 
4270.00 5.3968e-17 
4271.50 7.0235e-17 
4273.00 5.0218e-17 
4274.50 5.8330e-17 
4276.00 4.6661e-17 
4277.50 4.8545e-17 
4279.00 7.4131e-17 
4280.50 6.4132e-17 
4282.00 4.4820e-17 
4283.50 6.6554e-17 
4285.00 6.2440e-17 
4286.50 5.8370e-17 
4288.00 6.5551e-17 
4289.50 5.2955e-17 
4291.00 5.2369e-17 
4292.50 5.9097e-17 
4294.00 5.7797e-17 
4295.50 4.1043e-17 
4297.00 4.9624e-17 
4298.50 5.6174e-17 
4300.00 6.2612e-17 
4301.50 7.9622e-17 
4303.00 5.3403e-17 
4304.50 5.6418e-17 
4306.00 5.9203e-17 
4307.50 4.4839e-17 
4309.00 5.6976e-17 
4310.50 5.8473e-17 
4312.00 5.2032e-17 
4313.50 6.3334e-17 
4315.00 7.1860e-17 
4316.50 5.4442e-17 
4318.00 4.9760e-17 
4319.50 5.3809e-17 
4321.00 4.8437e-17 
4322.50 5.1904e-17 
4324.00 4.9210e-17 
4325.50 4.7352e-17 
4327.00 6.3065e-17 
4328.50 4.7999e-17 
4330.00 5.2927e-17 
4331.50 4.7200e-17 
4333.00 5.4647e-17 
4334.50 6.0972e-17 
4336.00 6.7000e-17 
4337.50 5.4478e-17 
4339.00 6.4793e-17 
4340.50 6.1282e-17 
4342.00 5.1651e-17 
4343.50 5.2861e-17 
4345.00 5.7747e-17 
4346.50 5.7880e-17 
4348.00 5.0543e-17 
4349.50 5.4680e-17 
4351.00 5.0392e-17 
4352.50 5.4490e-17 
4354.00 6.4703e-17 
4355.50 4.9653e-17 
4357.00 4.5272e-17 
4358.50 6.2289e-17 
4360.00 5.4385e-17 
4361.50 6.9092e-17 
4363.00 5.1982e-17 
4364.50 6.7560e-17 
4366.00 5.8378e-17 
4367.50 5.6807e-17 
4369.00 4.3805e-17 
4370.50 4.2013e-17 
4372.00 5.7981e-17 
4373.50 7.8103e-17 
4375.00 5.6407e-17 
4376.50 5.4521e-17 
4378.00 6.4228e-17 
4379.50 4.9892e-17 
4381.00 7.3835e-17 
4382.50 6.5077e-17 
4384.00 5.0259e-17 
4385.50 6.2500e-17 
4387.00 5.2793e-17 
4388.50 7.2146e-17 
4390.00 5.2508e-17 
4391.50 7.2177e-17 
4393.00 5.4039e-17 
4394.50 6.3774e-17 
4396.00 4.4164e-17 
4397.50 5.9935e-17 
4399.00 4.9253e-17 
4400.50 5.2443e-17 
4402.00 4.7953e-17 
4403.50 4.7459e-17 
4405.00 5.3578e-17 
4406.50 4.1801e-17 
4408.00 5.3987e-17 
4409.50 3.9302e-17 
4411.00 4.6599e-17 
4412.50 5.5973e-17 
4414.00 6.1345e-17 
4415.50 5.4167e-17 
4417.00 6.2578e-17 
4418.50 6.7862e-17 
4420.00 4.0748e-17 
4421.50 5.8957e-17 
4423.00 7.8921e-17 
4424.50 4.7809e-17 
4426.00 5.0070e-17 
4427.50 6.3858e-17 
4429.00 5.4232e-17 
4430.50 5.3134e-17 
4432.00 4.8503e-17 
4433.50 6.2639e-17 
4435.00 5.6745e-17 
4436.50 5.3093e-17 
4438.00 5.5624e-17 
4439.50 4.8266e-17 
4441.00 4.2837e-17 
4442.50 5.1775e-17 
4444.00 6.0153e-17 
4445.50 5.4224e-17 
4447.00 6.8627e-17 
4448.50 5.4314e-17 
4450.00 5.3900e-17 
4451.50 6.8338e-17 
4453.00 6.4212e-17 
4454.50 5.8393e-17 
4456.00 6.0744e-17 
4457.50 6.0795e-17 
4459.00 5.7918e-17 
4460.50 6.0887e-17 
4462.00 4.8495e-17 
4463.50 4.3143e-17 
4465.00 6.1639e-17 
4466.50 5.0417e-17 
4468.00 4.4749e-17 
4469.50 3.7999e-17 
4471.00 4.9563e-17 
4472.50 5.7199e-17 
4474.00 5.4390e-17 
4475.50 6.9289e-17 
4477.00 7.5122e-17 
4478.50 5.8184e-17 
4480.00 6.6307e-17 
4481.50 5.5375e-17 
4483.00 5.3772e-17 
4484.50 5.4055e-17 
4486.00 5.3170e-17 
4487.50 5.1883e-17 
4489.00 5.3307e-17 
4490.50 4.5488e-17 
4492.00 5.8737e-17 
4493.50 4.6550e-17 
4495.00 5.2227e-17 
4496.50 6.1405e-17 
4498.00 4.9196e-17 
4499.50 4.0760e-17 
4501.00 5.5095e-17 
4502.50 5.7875e-17 
4504.00 5.1312e-17 
4505.50 5.8077e-17 
4507.00 5.8686e-17 
4508.50 5.1042e-17 
4510.00 5.8686e-17 
4511.50 4.4461e-17 
4513.00 4.7171e-17 
4514.50 4.8788e-17 
4516.00 5.6665e-17 
4517.50 5.4736e-17 
4519.00 5.1377e-17 
4520.50 4.3931e-17 
4522.00 5.9755e-17 
4523.50 5.0341e-17 
4525.00 6.3926e-17 
4526.50 6.1304e-17 
4528.00 6.1886e-17 
4529.50 5.8606e-17 
4531.00 4.0191e-17 
4532.50 5.2552e-17 
4534.00 5.8947e-17 
4535.50 5.3806e-17 
4537.00 4.1866e-17 
4538.50 5.0857e-17 
4540.00 5.1718e-17 
4541.50 5.9692e-17 
4543.00 6.8749e-17 
4544.50 4.0293e-17 
4546.00 5.7478e-17 
4547.50 4.8990e-17 
4549.00 5.9582e-17 
4550.50 5.2541e-17 
4552.00 5.1788e-17 
4553.50 5.4812e-17 
4555.00 5.8931e-17 
4556.50 5.1008e-17 
4558.00 4.7052e-17 
4559.50 6.7965e-17 
4561.00 6.5403e-17 
4562.50 6.5498e-17 
4564.00 5.5123e-17 
4565.50 4.8499e-17 
4567.00 3.9915e-17 
4568.50 5.0330e-17 
4570.00 5.4797e-17 
4571.50 5.1250e-17 
4573.00 4.6756e-17 
4574.50 4.3093e-17 
4576.00 5.5560e-17 
4577.50 5.6078e-17 
4579.00 4.6667e-17 
4580.50 4.7044e-17 
4582.00 5.8876e-17 
4583.50 6.8999e-17 
4585.00 5.7069e-17 
4586.50 4.5358e-17 
4588.00 4.2573e-17 
4589.50 5.4197e-17 
4591.00 6.5488e-17 
4592.50 3.7099e-17 
4594.00 5.5698e-17 
4595.50 4.8608e-17 
4597.00 5.4575e-17 
4598.50 5.0805e-17 
4600.00 5.0022e-17 
4601.50 4.4541e-17 
4603.00 3.9881e-17 
4604.50 6.1012e-17 
4606.00 4.9126e-17 
4607.50 5.0016e-17 
4609.00 5.3887e-17 
4610.50 4.6919e-17 
4612.00 5.7730e-17 
4613.50 5.1231e-17 
4615.00 5.1883e-17 
4616.50 4.7564e-17 
4618.00 5.0893e-17 
4619.50 7.0897e-17 
4621.00 5.6363e-17 
4622.50 6.0374e-17 
4624.00 5.1347e-17 
4625.50 4.3258e-17 
4627.00 4.9623e-17 
4628.50 6.1393e-17 
4630.00 5.2182e-17 
4631.50 6.4536e-17 
4633.00 5.3605e-17 
4634.50 5.3790e-17 
4636.00 6.5495e-17 
4637.50 6.6501e-17 
4639.00 5.3411e-17 
4640.50 5.9935e-17 
4642.00 6.5533e-17 
4643.50 6.2817e-17 
4645.00 5.1988e-17 
4646.50 5.5795e-17 
4648.00 5.5860e-17 
4649.50 4.4182e-17 
4651.00 5.5831e-17 
4652.50 5.4031e-17 
4654.00 4.7581e-17 
4655.50 4.6132e-17 
4657.00 5.0620e-17 
4658.50 5.4352e-17 
4660.00 4.7542e-17 
4661.50 5.9497e-17 
4663.00 5.1851e-17 
4664.50 5.8339e-17 
4666.00 5.7900e-17 
4667.50 4.3774e-17 
4669.00 4.5643e-17 
4670.50 5.0051e-17 
4672.00 5.0908e-17 
4673.50 4.9660e-17 
4675.00 5.0027e-17 
4676.50 4.6716e-17 
4678.00 5.4517e-17 
4679.50 4.6004e-17 
4681.00 4.5620e-17 
4682.50 5.6171e-17 
4684.00 5.9937e-17 
4685.50 5.0121e-17 
4687.00 4.3269e-17 
4688.50 6.2423e-17 
4690.00 5.0529e-17 
4691.50 5.0864e-17 
4693.00 4.0354e-17 
4694.50 5.3333e-17 
4696.00 4.7738e-17 
4697.50 5.4643e-17 
4699.00 5.3755e-17 
4700.50 5.6442e-17 
4702.00 4.8906e-17 
4703.50 5.3960e-17 
4705.00 5.1522e-17 
4706.50 4.0291e-17 
4708.00 5.5216e-17 
4709.50 5.6041e-17 
4711.00 5.8290e-17 
4712.50 5.8782e-17 
4714.00 4.7423e-17 
4715.50 6.0014e-17 
4717.00 6.9847e-17 
4718.50 4.8760e-17 
4720.00 5.5865e-17 
4721.50 5.3952e-17 
4723.00 4.1196e-17 
4724.50 5.1747e-17 
4726.00 4.3706e-17 
4727.50 5.6816e-17 
4729.00 4.9440e-17 
4730.50 4.2382e-17 
4732.00 4.3440e-17 
4733.50 5.4515e-17 
4735.00 6.6391e-17 
4736.50 7.3800e-17 
4738.00 5.5923e-17 
4739.50 5.2105e-17 
4741.00 6.0856e-17 
4742.50 5.2309e-17 
4744.00 5.0343e-17 
4745.50 5.0530e-17 
4747.00 5.2744e-17 
4748.50 5.5301e-17 
4750.00 7.8822e-17 
4751.50 5.7267e-17 
4753.00 6.1654e-17 
4754.50 6.7086e-17 
4756.00 5.8983e-17 
4757.50 6.9629e-17 
4759.00 5.7629e-17 
4760.50 6.1173e-17 
4762.00 6.5909e-17 
4763.50 5.1681e-17 
4765.00 6.2854e-17 
4766.50 5.6419e-17 
4768.00 6.1518e-17 
4769.50 6.4022e-17 
4771.00 5.9870e-17 
4772.50 5.7273e-17 
4774.00 6.6636e-17 
4775.50 6.6024e-17 
4777.00 6.2156e-17 
4778.50 6.7057e-17 
4780.00 5.5541e-17 
4781.50 5.4461e-17 
4783.00 5.6181e-17 
4784.50 5.6524e-17 
4786.00 6.4684e-17 
4787.50 5.0156e-17 
4789.00 6.0438e-17 
4790.50 6.3861e-17 
4792.00 6.7817e-17 
4793.50 6.5504e-17 
4795.00 5.9676e-17 
4796.50 5.6627e-17 
4798.00 4.7733e-17 
4799.50 3.4150e-17 
4801.00 4.1540e-17 
4802.50 4.9908e-17 
4804.00 5.7294e-17 
4805.50 5.6124e-17 
4807.00 6.9177e-17 
4808.50 7.0559e-17 
4810.00 6.2420e-17 
4811.50 6.6384e-17 
4813.00 6.0266e-17 
4814.50 6.4800e-17 
4816.00 6.8060e-17 
4817.50 5.5886e-17 
4819.00 6.6936e-17 
4820.50 6.2412e-17 
4822.00 6.0048e-17 
4823.50 5.4728e-17 
4825.00 5.6723e-17 
4826.50 6.1967e-17 
4828.00 6.3999e-17 
4829.50 6.7576e-17 
4831.00 6.6476e-17 
4832.50 6.3937e-17 
4834.00 6.1003e-17 
4835.50 7.3816e-17 
4837.00 7.5390e-17 
4838.50 7.9887e-17 
4840.00 6.9101e-17 
4841.50 6.8121e-17 
4843.00 6.7901e-17 
4844.50 7.5467e-17 
4846.00 7.2252e-17 
4847.50 6.9930e-17 
4849.00 6.3957e-17 
4850.50 7.7693e-17 
4852.00 6.0873e-17 
4853.50 6.2847e-17 
4855.00 8.2427e-17 
4856.50 5.9032e-17 
4858.00 6.8318e-17 
4859.50 7.3209e-17 
4861.00 6.0545e-17 
4862.50 6.5094e-17 
4864.00 8.7544e-17 
4865.50 7.0001e-17 
4867.00 7.5812e-17 
4868.50 7.2317e-17 
4870.00 6.6282e-17 
4871.50 7.3251e-17 
4873.00 6.6257e-17 
4874.50 5.8693e-17 
4876.00 7.3258e-17 
4877.50 7.2452e-17 
4879.00 6.7091e-17 
4880.50 7.7736e-17 
4882.00 7.8386e-17 
4883.50 7.1962e-17 
4885.00 7.8192e-17 
4886.50 7.2180e-17 
4888.00 7.6694e-17 
4889.50 7.4572e-17 
4891.00 6.2923e-17 
4892.50 5.8376e-17 
4894.00 6.7309e-17 
4895.50 5.6482e-17 
4897.00 6.7484e-17 
4898.50 6.4927e-17 
4900.00 6.5523e-17 
4901.50 6.9728e-17 
4903.00 6.8144e-17 
4904.50 6.7399e-17 
4906.00 6.2477e-17 
4907.50 7.0187e-17 
4909.00 7.4017e-17 
4910.50 5.9186e-17 
4912.00 6.7177e-17 
4913.50 6.6919e-17 
4915.00 5.7429e-17 
4916.50 6.0270e-17 
4918.00 6.6284e-17 
4919.50 6.3708e-17 
4921.00 6.8705e-17 
4922.50 6.7380e-17 
4924.00 7.1000e-17 
4925.50 6.1995e-17 
4927.00 5.7209e-17 
4928.50 6.3350e-17 
4930.00 6.2506e-17 
4931.50 6.4223e-17 
4933.00 5.4425e-17 
4934.50 4.6940e-17 
4936.00 5.0903e-17 
4937.50 5.3900e-17 
4939.00 6.2209e-17 
4940.50 5.8561e-17 
4942.00 6.0180e-17 
4943.50 5.9953e-17 
4945.00 6.2254e-17 
4946.50 5.8872e-17 
4948.00 6.4964e-17 
4949.50 5.6311e-17 
4951.00 4.7540e-17 
4952.50 6.0494e-17 
4954.00 6.1097e-17 
4955.50 5.3539e-17 
4957.00 4.8001e-17 
4958.50 5.1227e-17 
4960.00 4.3645e-17 
4961.50 6.1513e-17 
4963.00 4.9871e-17 
4964.50 4.8396e-17 
4966.00 5.1372e-17 
4967.50 6.0579e-17 
4969.00 6.5274e-17 
4970.50 5.4672e-17 
4972.00 6.0111e-17 
4973.50 4.9409e-17 
4975.00 5.5044e-17 
4976.50 5.2482e-17 
4978.00 5.0632e-17 
4979.50 5.6488e-17 
4981.00 4.0915e-17 
4982.50 4.6800e-17 
4984.00 4.3568e-17 
4985.50 5.3635e-17 
4987.00 6.8324e-17 
4988.50 5.1302e-17 
4990.00 4.5095e-17 
4991.50 4.4449e-17 
4993.00 5.1904e-17 
4994.50 5.4355e-17 
4996.00 4.6262e-17 
4997.50 5.4612e-17 
4999.00 5.2859e-17 
5000.50 5.8743e-17 
5002.00 5.1970e-17 
5003.50 4.4904e-17 
5005.00 5.2034e-17 
5006.50 4.8515e-17 
5008.00 4.7436e-17 
5009.50 4.3897e-17 
5011.00 4.8358e-17 
5012.50 4.8855e-17 
5014.00 3.8706e-17 
5015.50 5.4435e-17 
5017.00 4.5328e-17 
5018.50 5.0736e-17 
5020.00 4.8347e-17 
5021.50 5.4015e-17 
5023.00 5.3958e-17 
5024.50 5.3217e-17 
5026.00 4.9482e-17 
5027.50 4.3098e-17 
5029.00 4.5430e-17 
5030.50 3.8635e-17 
5032.00 4.8277e-17 
5033.50 5.4644e-17 
5035.00 3.9264e-17 
5036.50 5.1040e-17 
5038.00 5.3027e-17 
5039.50 4.9532e-17 
5041.00 4.2639e-17 
5042.50 4.3979e-17 
5044.00 4.6297e-17 
5045.50 5.0034e-17 
5047.00 4.4485e-17 
5048.50 5.4643e-17 
5050.00 5.2943e-17 
5051.50 4.4088e-17 
5053.00 4.9938e-17 
5054.50 5.1196e-17 
5056.00 4.4881e-17 
5057.50 4.2525e-17 
5059.00 4.3594e-17 
5060.50 3.0625e-17 
5062.00 3.8375e-17 
5063.50 3.8204e-17 
5065.00 4.1853e-17 
5066.50 4.6684e-17 
5068.00 4.6097e-17 
5069.50 4.7998e-17 
5071.00 4.5550e-17 
5072.50 4.5766e-17 
5074.00 4.2143e-17 
5075.50 4.9002e-17 
5077.00 4.1876e-17 
5078.50 4.6453e-17 
5080.00 4.8391e-17 
5081.50 3.9563e-17 
5083.00 4.4379e-17 
5084.50 3.7754e-17 
5086.00 4.9421e-17 
5087.50 5.7580e-17 
5089.00 4.8161e-17 
5090.50 5.0845e-17 
5092.00 4.7342e-17 
5093.50 4.2833e-17 
5095.00 5.0986e-17 
5096.50 5.0253e-17 
5098.00 4.3997e-17 
5099.50 4.9662e-17 
5101.00 5.1318e-17 
5102.50 4.9953e-17 
5104.00 3.8785e-17 
5105.50 5.0705e-17 
5107.00 4.6147e-17 
5108.50 4.2621e-17 
5110.00 4.6168e-17 
5111.50 4.3812e-17 
5113.00 3.8511e-17 
5114.50 4.2806e-17 
5116.00 3.9950e-17 
5117.50 4.8852e-17 
5119.00 4.6242e-17 
5120.50 6.7180e-17 
5122.00 5.0428e-17 
5123.50 4.8343e-17 
5125.00 5.3250e-17 
5126.50 5.2393e-17 
5128.00 5.6017e-17 
5129.50 5.6180e-17 
5131.00 4.8114e-17 
5132.50 5.0918e-17 
5134.00 4.7670e-17 
5135.50 4.0597e-17 
5137.00 5.5733e-17 
5138.50 4.8579e-17 
5140.00 6.2958e-17 
5141.50 5.2467e-17 
5143.00 4.9232e-17 
5144.50 4.7311e-17 
5146.00 4.7075e-17 
5147.50 3.8812e-17 
5149.00 4.7402e-17 
5150.50 5.0579e-17 
5152.00 4.4052e-17 
5153.50 5.4220e-17 
5155.00 4.5985e-17 
5156.50 4.6593e-17 
5158.00 4.9595e-17 
5159.50 4.3746e-17 
5161.00 3.8565e-17 
5162.50 3.8276e-17 
5164.00 5.3109e-17 
5165.50 5.3113e-17 
5167.00 4.8792e-17 
5168.50 3.6150e-17 
5170.00 4.3819e-17 
5171.50 5.6176e-17 
5173.00 4.6724e-17 
5174.50 4.5969e-17 
5176.00 5.4949e-17 
5177.50 4.6176e-17 
5179.00 4.5127e-17 
5180.50 4.3462e-17 
5182.00 4.0991e-17 
5183.50 5.1544e-17 
5185.00 4.6234e-17 
5186.50 4.2342e-17 
5188.00 4.6712e-17 
5189.50 4.8099e-17 
5191.00 4.7102e-17 
5192.50 4.0662e-17 
5194.00 4.4853e-17 
5195.50 6.1154e-17 
5197.00 4.9803e-17 
5198.50 4.7003e-17 
5200.00 4.6776e-17 
5201.50 5.4732e-17 
5203.00 4.6193e-17 
5204.50 4.9225e-17 
5206.00 4.9313e-17 
5207.50 4.9040e-17 
5209.00 4.8848e-17 
5210.50 3.6170e-17 
5212.00 3.7648e-17 
5213.50 4.4158e-17 
5215.00 3.9532e-17 
5216.50 4.2385e-17 
5218.00 5.7295e-17 
5219.50 4.5315e-17 
5221.00 4.7610e-17 
5222.50 5.5205e-17 
5224.00 5.0471e-17 
5225.50 4.9771e-17 
5227.00 4.7456e-17 
5228.50 5.0101e-17 
5230.00 4.7078e-17 
5231.50 4.8689e-17 
5233.00 5.0183e-17 
5234.50 4.0745e-17 
5236.00 4.0673e-17 
5237.50 3.6764e-17 
5239.00 3.7215e-17 
5240.50 4.4274e-17 
5242.00 4.6962e-17 
5243.50 4.1990e-17 
5245.00 4.0787e-17 
5246.50 4.3456e-17 
5248.00 4.6908e-17 
5249.50 4.4024e-17 
5251.00 4.5150e-17 
5252.50 3.9771e-17 
5254.00 4.4847e-17 
5255.50 4.4510e-17 
5257.00 3.6635e-17 
5258.50 4.7036e-17 
5260.00 5.6150e-17 
5261.50 4.5135e-17 
5263.00 4.0453e-17 
5264.50 4.1048e-17 
5266.00 4.5541e-17 
5267.50 4.6716e-17 
5269.00 4.2216e-17 
5270.50 3.9837e-17 
5272.00 3.4162e-17 
5273.50 4.0143e-17 
5275.00 4.5721e-17 
5276.50 4.7695e-17 
5278.00 4.2134e-17 
5279.50 4.0888e-17 
5281.00 4.6338e-17 
5282.50 4.4143e-17 
5284.00 5.2224e-17 
5285.50 4.6883e-17 
5287.00 4.9109e-17 
5288.50 4.8383e-17 
5290.00 5.5706e-17 
5291.50 4.3091e-17 
5293.00 5.1511e-17 
5294.50 4.4627e-17 
5296.00 4.0573e-17 
5297.50 4.6539e-17 
5299.00 4.1346e-17 
5300.50 5.5909e-17 
5302.00 4.8989e-17 
5303.50 4.7369e-17 
5305.00 5.1571e-17 
5306.50 4.0497e-17 
5308.00 4.8529e-17 
5309.50 4.9824e-17 
5311.00 5.2941e-17 
5312.50 4.5610e-17 
5314.00 4.1803e-17 
5315.50 5.1922e-17 
5317.00 5.5374e-17 
5318.50 3.9509e-17 
5320.00 5.0217e-17 
5321.50 5.6156e-17 
5323.00 5.9102e-17 
5324.50 6.2312e-17 
5326.00 5.0262e-17 
5327.50 4.5624e-17 
5329.00 4.4371e-17 
5330.50 4.4730e-17 
5332.00 4.1195e-17 
5333.50 5.1393e-17 
5335.00 5.4539e-17 
5336.50 4.0577e-17 
5338.00 4.5441e-17 
5339.50 5.3303e-17 
5341.00 5.0496e-17 
5342.50 4.3573e-17 
5344.00 4.1953e-17 
5345.50 5.3625e-17 
5347.00 4.7948e-17 
5348.50 5.3730e-17 
5350.00 5.0337e-17 
5351.50 4.7843e-17 
5353.00 5.2347e-17 
5354.50 4.5841e-17 
5356.00 5.1564e-17 
5357.50 5.3459e-17 
5359.00 4.2547e-17 
5360.50 5.4285e-17 
5362.00 4.7627e-17 
5363.50 4.8307e-17 
5365.00 4.3739e-17 
5366.50 4.2245e-17 
5368.00 4.7215e-17 
5369.50 4.6725e-17 
5371.00 4.4855e-17 
5372.50 4.1044e-17 
5374.00 4.5296e-17 
5375.50 4.5658e-17 
5377.00 5.0831e-17 
5378.50 4.5527e-17 
5380.00 5.0139e-17 
5381.50 4.7447e-17 
5383.00 4.8199e-17 
5384.50 4.7547e-17 
5386.00 4.4145e-17 
5387.50 4.5249e-17 
5389.00 5.5819e-17 
5390.50 4.6355e-17 
5392.00 4.3234e-17 
5393.50 4.8193e-17 
5395.00 5.4455e-17 
5396.50 5.5098e-17 
5398.00 4.3915e-17 
5399.50 4.6509e-17 
5401.00 4.2562e-17 
5402.50 4.3565e-17 
5404.00 4.7345e-17 
5405.50 5.1196e-17 
5407.00 3.6983e-17 
5408.50 4.3033e-17 
5410.00 5.1952e-17 
5411.50 4.0177e-17 
5413.00 4.4737e-17 
5414.50 4.4302e-17 
5416.00 4.6024e-17 
5417.50 4.0042e-17 
5419.00 4.5960e-17 
5420.50 6.9022e-17 
5422.00 5.2938e-17 
5423.50 4.6250e-17 
5425.00 4.4097e-17 
5426.50 4.4920e-17 
5428.00 4.4409e-17 
5429.50 4.4816e-17 
5431.00 4.7931e-17 
5432.50 5.2596e-17 
5434.00 4.4603e-17 
5435.50 4.1521e-17 
5437.00 3.8395e-17 
5438.50 4.5085e-17 
5440.00 5.1049e-17 
5441.50 3.7694e-17 
5443.00 4.3521e-17 
5444.50 4.8092e-17 
5446.00 4.4875e-17 
5447.50 4.1230e-17 
5449.00 3.8087e-17 
5450.50 4.3354e-17 
5452.00 3.5266e-17 
5453.50 4.1401e-17 
5455.00 5.1954e-17 
5456.50 4.1778e-17 
5458.00 4.6075e-17 
5459.50 3.6621e-17 
5461.00 3.5870e-17 
5462.50 2.9476e-17 
5464.00 4.4830e-17 
5465.50 3.6298e-17 
5467.00 4.0282e-17 
5468.50 4.4964e-17 
5470.00 4.5246e-17 
5471.50 4.9259e-17 
5473.00 4.1104e-17 
5474.50 4.1245e-17 
5476.00 3.7276e-17 
5477.50 3.6660e-17 
5479.00 3.9742e-17 
5480.50 4.9334e-17 
5482.00 4.4053e-17 
5483.50 4.4147e-17 
5485.00 4.4981e-17 
5486.50 3.8727e-17 
5488.00 3.9216e-17 
5489.50 4.5998e-17 
5491.00 4.9628e-17 
5492.50 4.6785e-17 
5494.00 3.6055e-17 
5495.50 4.0728e-17 
5497.00 4.0381e-17 
5498.50 5.1402e-17 
5500.00 4.6569e-17 
5501.50 4.7768e-17 
5503.00 4.0929e-17 
5504.50 3.8857e-17 
5506.00 4.7082e-17 
5507.50 4.6180e-17 
5509.00 4.2158e-17 
5510.50 4.3862e-17 
5512.00 4.1561e-17 
5513.50 4.7051e-17 
5515.00 4.3965e-17 
5516.50 4.3184e-17 
5518.00 4.6563e-17 
5519.50 4.5528e-17 
5521.00 3.9526e-17 
5522.50 4.2732e-17 
5524.00 4.1027e-17 
5525.50 5.3386e-17 
5527.00 4.2549e-17 
5528.50 3.7759e-17 
5530.00 4.6714e-17 
5531.50 3.7715e-17 
5533.00 3.8602e-17 
5534.50 4.9508e-17 
5536.00 4.4943e-17 
5537.50 4.4263e-17 
5539.00 4.3588e-17 
5540.50 3.7564e-17 
5542.00 4.8059e-17 
5543.50 5.2334e-17 
5545.00 4.0334e-17 
5546.50 3.5572e-17 
5548.00 3.9064e-17 
5549.50 3.7421e-17 
5551.00 4.0236e-17 
5552.50 4.9881e-17 
5554.00 4.4373e-17 
5555.50 4.2433e-17 
5557.00 3.9076e-17 
5558.50 4.9425e-17 
5560.00 3.7892e-17 
5561.50 4.8854e-17 
5563.00 3.2655e-17 
5564.50 4.0245e-17 
5566.00 3.7955e-17 
5567.50 4.4133e-17 
5569.00 4.2619e-17 
5570.50 3.8548e-17 
5572.00 4.7242e-17 
5573.50 4.4283e-17 
5575.00 3.2763e-17 
5576.50 -4.6720e-17
5578.00 -2.0432e-17
5579.50 3.0809e-16 
5581.00 7.2604e-17 
5582.50 -3.5932e-17
5584.00 4.3555e-17 
5585.50 4.3450e-17 
5587.00 3.1750e-17 
5588.50 4.1002e-17 
5590.00 3.4864e-17 
5591.50 3.4427e-17 
5593.00 3.3419e-17 
5594.50 3.7477e-17 
5596.00 3.4554e-17 
5597.50 4.8770e-17 
5599.00 4.4873e-17 
5600.50 4.3938e-17 
5602.00 3.9285e-17 
5603.50 4.8819e-17 
5605.00 4.9088e-17 
5606.50 4.3799e-17 
5608.00 3.8743e-17 
5609.50 3.6734e-17 
5611.00 3.7708e-17 
5612.50 3.7603e-17 
5614.00 4.8211e-17 
5615.50 3.6627e-17 
5617.00 4.3816e-17 
5618.50 3.7732e-17 
5620.00 3.9560e-17 
5621.50 4.2036e-17 
5623.00 4.9247e-17 
5624.50 4.2280e-17 
5626.00 4.7890e-17 
5627.50 2.9318e-17 
5629.00 3.8632e-17 
5630.50 2.9556e-17 
5632.00 2.1536e-17 
5633.50 2.1907e-17 
5635.00 2.5509e-17 
5636.50 4.4855e-17 
5638.00 3.8609e-17 
5639.50 4.3748e-17 
5641.00 4.1548e-17 
5642.50 2.9944e-17 
5644.00 4.8941e-17 
5645.50 4.0625e-17 
5647.00 2.2567e-17 
5648.50 1.7576e-17 
5650.00 2.9686e-17 
5651.50 4.0837e-17 
5653.00 3.6682e-17 
5654.50 3.3991e-17 
5656.00 3.5734e-17 
5657.50 3.8791e-17 
5659.00 3.3582e-17 
5660.50 3.7104e-17 
5662.00 4.6528e-17 
5663.50 5.0452e-17 
5665.00 4.1621e-17 
5666.50 3.8632e-17 
5668.00 3.6931e-17 
5669.50 3.8326e-17 
5671.00 4.1311e-17 
5672.50 4.2822e-17 
5674.00 4.7049e-17 
5675.50 4.6955e-17 
5677.00 3.9391e-17 
5678.50 4.1975e-17 
5680.00 2.9117e-17 
5681.50 2.3464e-17 
5683.00 3.9348e-17 
5684.50 3.3863e-17 
5686.00 3.8028e-17 
5687.50 4.0373e-17 
5689.00 3.5377e-17 
5690.50 3.0122e-17 
5692.00 3.7952e-17 
5693.50 3.4670e-17 
5695.00 4.5706e-17 
5696.50 3.8630e-17 
5698.00 3.4193e-17 
5699.50 3.9376e-17 
5701.00 3.9500e-17 
5702.50 3.6911e-17 
5704.00 3.8812e-17 
5705.50 4.2029e-17 
5707.00 4.4644e-17 
5708.50 5.2538e-17 
5710.00 4.6959e-17 
5711.50 3.6554e-17 
5713.00 3.5302e-17 
5714.50 3.6547e-17 
5716.00 4.1183e-17 
5717.50 4.7372e-17 
5719.00 3.6534e-17 
5720.50 3.4446e-17 
5722.00 4.2345e-17 
5723.50 4.3056e-17 
5725.00 4.5282e-17 
5726.50 4.2995e-17 
5728.00 4.5580e-17 
5729.50 4.1608e-17 
5731.00 3.7320e-17 
5732.50 3.7842e-17 
5734.00 3.7738e-17 
5735.50 3.7746e-17 
5737.00 3.8700e-17 
5738.50 5.4005e-17 
5740.00 4.6562e-17 
5741.50 3.7132e-17 
5743.00 3.6649e-17 
5744.50 3.0484e-17 
5746.00 2.7802e-17 
5747.50 2.7980e-17 
5749.00 3.2236e-17 
5750.50 4.8234e-17 
5752.00 4.6123e-17 
5753.50 4.0091e-17 
5755.00 3.8352e-17 
5756.50 3.8540e-17 
5758.00 3.5715e-17 
5759.50 3.7698e-17 
5761.00 3.2981e-17 
5762.50 3.6160e-17 
5764.00 4.0808e-17 
5765.50 4.2837e-17 
5767.00 4.0032e-17 
5768.50 4.0095e-17 
5770.00 4.7903e-17 
5771.50 3.8039e-17 
5773.00 4.9158e-17 
5774.50 4.2378e-17 
5776.00 5.2869e-17 
5777.50 5.3160e-17 
5779.00 4.2598e-17 
5780.50 4.6313e-17 
5782.00 3.9857e-17 
5783.50 3.9629e-17 
5785.00 4.3232e-17 
5786.50 4.1639e-17 
5788.00 3.5606e-17 
5789.50 3.9393e-17 
5791.00 5.4485e-17 
5792.50 4.6476e-17 
5794.00 4.5786e-17 
5795.50 4.0862e-17 
5797.00 3.4338e-17 
5798.50 4.5596e-17 
5800.00 4.3065e-17 
5801.50 4.2527e-17 
5803.00 4.0883e-17 
5804.50 4.1230e-17 
5806.00 4.6577e-17 
5807.50 4.6467e-17 
5809.00 3.8173e-17 
5810.50 4.9324e-17 
5812.00 5.3466e-17 
5813.50 5.4123e-17 
5815.00 4.9565e-17 
5816.50 4.2360e-17 
5818.00 3.5740e-17 
5819.50 4.0384e-17 
5821.00 4.8513e-17 
5822.50 4.8507e-17 
5824.00 4.7451e-17 
5825.50 4.7468e-17 
5827.00 4.5930e-17 
5828.50 4.0017e-17 
5830.00 3.8156e-17 
5831.50 4.4540e-17 
5833.00 4.9010e-17 
5834.50 4.0046e-17 
5836.00 3.9053e-17 
5837.50 3.0231e-17 
5839.00 3.9853e-17 
5840.50 3.8094e-17 
5842.00 3.1616e-17 
5843.50 3.7122e-17 
5845.00 4.3019e-17 
5846.50 4.7199e-17 
5848.00 4.4817e-17 
5849.50 4.7629e-17 
5851.00 4.2239e-17 
5852.50 3.9937e-17 
5854.00 4.0860e-17 
5855.50 4.7876e-17 
5857.00 4.5497e-17 
5858.50 3.1985e-17 
5860.00 4.0566e-17 
5861.50 3.8835e-17 
5863.00 3.7529e-17 
5864.50 4.2336e-17 
5866.00 3.7485e-17 
5867.50 3.6395e-17 
5869.00 3.4657e-17 
5870.50 5.5299e-17 
5872.00 3.4803e-17 
5873.50 4.0586e-17 
5875.00 3.6882e-17 
5876.50 3.8418e-17 
5878.00 3.5363e-17 
5879.50 3.9878e-17 
5881.00 4.3579e-17 
5882.50 4.8904e-17 
5884.00 4.2347e-17 
5885.50 4.4610e-17 
5887.00 4.5562e-17 
5888.50 3.5884e-17 
5890.00 3.1901e-17 
5891.50 1.5948e-17 
5893.00 3.7792e-17 
5894.50 3.5278e-17 
5896.00 1.3371e-18 
5897.50 4.0090e-17 
5899.00 4.8180e-17 
5900.50 2.9248e-17 
5902.00 2.8070e-17 
5903.50 3.8099e-17 
5905.00 3.9848e-17 
5906.50 4.1595e-17 
5908.00 3.6127e-17 
5909.50 3.5201e-17 
5911.00 3.3912e-17 
5912.50 4.2533e-17 
5914.00 4.7223e-17 
5915.50 4.3332e-17 
5917.00 4.5142e-17 
5918.50 4.3632e-17 
5920.00 3.6648e-17 
5921.50 3.0761e-17 
5923.00 3.5469e-17 
5924.50 4.1174e-17 
5926.00 4.1714e-17 
5927.50 4.8363e-17 
5929.00 4.4450e-17 
5930.50 4.5589e-17 
5932.00 5.2569e-17 
5933.50 4.0735e-17 
5935.00 3.5435e-17 
5936.50 5.0150e-17 
5938.00 4.6461e-17 
5939.50 4.6181e-17 
5941.00 4.4980e-17 
5942.50 4.0835e-17 
5944.00 4.4636e-17 
5945.50 4.5138e-17 
5947.00 4.7990e-17 
5948.50 4.6222e-17 
5950.00 3.7946e-17 
5951.50 4.0038e-17 
5953.00 4.9209e-17 
5954.50 4.2575e-17 
5956.00 3.4793e-17 
5957.50 3.6387e-17 
5959.00 4.5560e-17 
5960.50 3.8112e-17 
5962.00 3.7045e-17 
5963.50 4.3361e-17 
5965.00 3.9815e-17 
5966.50 4.2485e-17 
5968.00 3.3989e-17 
5969.50 3.5113e-17 
5971.00 4.6434e-17 
5972.50 3.8587e-17 
5974.00 4.4208e-17 
5975.50 4.1232e-17 
5977.00 4.2481e-17 
5978.50 4.4803e-17 
5980.00 3.9972e-17 
5981.50 3.4323e-17 
5983.00 3.1766e-17 
5984.50 4.0713e-17 
5986.00 3.8205e-17 
5987.50 3.8986e-17 
5989.00 5.2539e-17 
5990.50 4.8140e-17 
5992.00 3.5803e-17 
5993.50 4.2267e-17 
5995.00 4.6180e-17 
5996.50 4.5632e-17 
5998.00 5.1867e-17 
5999.50 4.4176e-17 
6001.00 3.7240e-17 
6002.50 4.1820e-17 
6004.00 4.4199e-17 
6005.50 4.2145e-17 
6007.00 4.7534e-17 
6008.50 4.6655e-17 
6010.00 5.8983e-17 
6011.50 5.2452e-17 
6013.00 3.2257e-17 
6014.50 4.6103e-17 
6016.00 5.1021e-17 
6017.50 3.9484e-17 
6019.00 3.4885e-17 
6020.50 3.9727e-17 
6022.00 3.5062e-17 
6023.50 3.9537e-17 
6025.00 4.4468e-17 
6026.50 4.1142e-17 
6028.00 4.7443e-17 
6029.50 4.4632e-17 
6031.00 3.8056e-17 
6032.50 3.5507e-17 
6034.00 3.5946e-17 
6035.50 4.7418e-17 
6037.00 5.0733e-17 
6038.50 4.1077e-17 
6040.00 3.6184e-17 
6041.50 3.6147e-17 
6043.00 4.0228e-17 
6044.50 4.4368e-17 
6046.00 4.3797e-17 
6047.50 4.0146e-17 
6049.00 4.8001e-17 
6050.50 4.1622e-17 
6052.00 3.6035e-17 
6053.50 3.8553e-17 
6055.00 3.7198e-17 
6056.50 4.3823e-17 
6058.00 5.0724e-17 
6059.50 4.5400e-17 
6061.00 4.7071e-17 
6062.50 4.1825e-17 
6064.00 4.1033e-17 
6065.50 4.2465e-17 
6067.00 4.3724e-17 
6068.50 5.1580e-17 
6070.00 5.5284e-17 
6071.50 4.6397e-17 
6073.00 3.4502e-17 
6074.50 3.5055e-17 
6076.00 3.4847e-17 
6077.50 4.1363e-17 
6079.00 5.1741e-17 
6080.50 4.2792e-17 
6082.00 3.7179e-17 
6083.50 4.3876e-17 
6085.00 4.6132e-17 
6086.50 4.2120e-17 
6088.00 3.9072e-17 
6089.50 4.2663e-17 
6091.00 4.2476e-17 
6092.50 3.7689e-17 
6094.00 4.1137e-17 
6095.50 4.1547e-17 
6097.00 4.0425e-17 
6098.50 4.1338e-17 
6100.00 4.0886e-17 
6101.50 3.5935e-17 
6103.00 3.4184e-17 
6104.50 3.4429e-17 
6106.00 2.9737e-17 
6107.50 3.3651e-17 
6109.00 4.3149e-17 
6110.50 4.7035e-17 
6112.00 4.4969e-17 
6113.50 4.0280e-17 
6115.00 4.0199e-17 
6116.50 3.3242e-17 
6118.00 3.9074e-17 
6119.50 4.2037e-17 
6121.00 3.8715e-17 
6122.50 3.1340e-17 
6124.00 2.9828e-17 
6125.50 3.0826e-17 
6127.00 3.3494e-17 
6128.50 3.8378e-17 
6130.00 3.7982e-17 
6131.50 3.6023e-17 
6133.00 3.7244e-17 
6134.50 3.8604e-17 
6136.00 3.5288e-17 
6137.50 4.6438e-17 
6139.00 3.8076e-17 
6140.50 4.0801e-17 
6142.00 4.2359e-17 
6143.50 3.8475e-17 
6145.00 3.6661e-17 
6146.50 4.2630e-17 
6148.00 4.6904e-17 
6149.50 4.2743e-17 
6151.00 3.8408e-17 
6152.50 3.9673e-17 
6154.00 3.9247e-17 
6155.50 3.5043e-17 
6157.00 3.5760e-17 
6158.50 3.8724e-17 
6160.00 4.0391e-17 
6161.50 4.1315e-17 
6163.00 4.1737e-17 
6164.50 4.1406e-17 
6166.00 4.3846e-17 
6167.50 4.8909e-17 
6169.00 4.5273e-17 
6170.50 3.8485e-17 
6172.00 4.3961e-17 
6173.50 3.9332e-17 
6175.00 3.9851e-17 
6176.50 3.9928e-17 
6178.00 4.0245e-17 
6179.50 4.5641e-17 
6181.00 4.5098e-17 
6182.50 3.9621e-17 
6184.00 3.8668e-17 
6185.50 3.8022e-17 
6187.00 3.7144e-17 
6188.50 4.4100e-17 
6190.00 4.0245e-17 
6191.50 3.6387e-17 
6193.00 5.5032e-17 
6194.50 3.6657e-17 
6196.00 4.4717e-17 
6197.50 4.4152e-17 
6199.00 4.3435e-17 
6200.50 3.9182e-17 
6202.00 4.2624e-17 
6203.50 5.4781e-17 
6205.00 5.3567e-17 
6206.50 5.1098e-17 
6208.00 4.3256e-17 
6209.50 3.5804e-17 
6211.00 4.2644e-17 
6212.50 4.8977e-17 
6214.00 4.4843e-17 
6215.50 3.8390e-17 
6217.00 4.8164e-17 
6218.50 4.0718e-17 
6220.00 4.0793e-17 
6221.50 3.5826e-17 
6223.00 5.0126e-17 
6224.50 5.1847e-17 
6226.00 4.9141e-17 
6227.50 4.2020e-17 
6229.00 3.7945e-17 
6230.50 4.0324e-17 
6232.00 3.9104e-17 
6233.50 4.3279e-17 
6235.00 4.2835e-17 
6236.50 4.6480e-17 
6238.00 5.1206e-17 
6239.50 4.6275e-17 
6241.00 4.1200e-17 
6242.50 4.4583e-17 
6244.00 4.7475e-17 
6245.50 4.5843e-17 
6247.00 4.7238e-17 
6248.50 5.0210e-17 
6250.00 4.3155e-17 
6251.50 3.3678e-17 
6253.00 4.8956e-17 
6254.50 4.2681e-17 
6256.00 5.3602e-17 
6257.50 4.3384e-17 
6259.00 4.3373e-17 
6260.50 5.4507e-17 
6262.00 5.1475e-17 
6263.50 3.8524e-17 
6265.00 4.6121e-17 
6266.50 4.2576e-17 
6268.00 4.5553e-17 
6269.50 4.6294e-17 
6271.00 3.9457e-17 
6272.50 3.8538e-17 
6274.00 3.7885e-17 
6275.50 3.5793e-17 
6277.00 3.6513e-17 
6278.50 3.5443e-17 
6280.00 3.2258e-17 
6281.50 3.6144e-17 
6283.00 4.0552e-17 
6284.50 3.4703e-17 
6286.00 3.3485e-17 
6287.50 4.4420e-17 
6289.00 4.3141e-17 
6290.50 3.3192e-17 
6292.00 3.8584e-17 
6293.50 4.4551e-17 
6295.00 3.7315e-17 
6296.50 4.1136e-17 
6298.00 5.2038e-17 
6299.50 4.4302e-17 
6301.00 4.0352e-17 
6302.50 5.0346e-17 
6304.00 4.4454e-17 
6305.50 5.1390e-17 
6307.00 5.1521e-17 
6308.50 4.8808e-17 
6310.00 5.0041e-17 
6311.50 4.5985e-17 
6313.00 4.0740e-17 
6314.50 3.7152e-17 
6316.00 3.6813e-17 
6317.50 3.7084e-17 
6319.00 4.8022e-17 
6320.50 5.2530e-17 
6322.00 4.5018e-17 
6323.50 4.8079e-17 
6325.00 4.4786e-17 
6326.50 3.8947e-17 
6328.00 4.0441e-17 
6329.50 3.9495e-17 
6331.00 4.8508e-17 
6332.50 3.9046e-17 
6334.00 3.6265e-17 
6335.50 3.6935e-17 
6337.00 2.9762e-17 
6338.50 3.9209e-17 
6340.00 4.4438e-17 
6341.50 3.8707e-17 
6343.00 4.9178e-17 
6344.50 4.0980e-17 
6346.00 4.3084e-17 
6347.50 3.9057e-17 
6349.00 3.7143e-17 
6350.50 3.8300e-17 
6352.00 4.9036e-17 
6353.50 4.3929e-17 
6355.00 4.3834e-17 
6356.50 4.2922e-17 
6358.00 3.3356e-17 
6359.50 3.5551e-17 
6361.00 4.5055e-17 
6362.50 3.9905e-17 
6364.00 3.9313e-17 
6365.50 3.6818e-17 
6367.00 3.3734e-17 
6368.50 4.6487e-17 
6370.00 4.5159e-17 
6371.50 4.7409e-17 
6373.00 3.5811e-17 
6374.50 3.4698e-17 
6376.00 4.8098e-17 
6377.50 5.1367e-17 
6379.00 4.7919e-17 
6380.50 4.1341e-17 
6382.00 3.8076e-17 
6383.50 4.2396e-17 
6385.00 4.1543e-17 
6386.50 4.3554e-17 
6388.00 4.4868e-17 
6389.50 4.3330e-17 
6391.00 3.7595e-17 
6392.50 3.3172e-17 
6394.00 3.4784e-17 
6395.50 3.3097e-17 
6397.00 3.3176e-17 
6398.50 4.4275e-17 
6400.00 4.1812e-17 
6401.50 3.7929e-17 
6403.00 3.4227e-17 
6404.50 3.9052e-17 
6406.00 3.3086e-17 
6407.50 3.4023e-17 
6409.00 4.4989e-17 
6410.50 4.3096e-17 
6412.00 4.1729e-17 
6413.50 4.5622e-17 
6415.00 3.9958e-17 
6416.50 3.9990e-17 
6418.00 4.8132e-17 
6419.50 4.0094e-17 
6421.00 4.5000e-17 
6422.50 3.6984e-17 
6424.00 4.0947e-17 
6425.50 4.1100e-17 
6427.00 3.9556e-17 
6428.50 4.9005e-17 
6430.00 4.5716e-17 
6431.50 4.2491e-17 
6433.00 3.6071e-17 
6434.50 4.1972e-17 
6436.00 3.5356e-17 
6437.50 2.7827e-17 
6439.00 3.6560e-17 
6440.50 4.2358e-17 
6442.00 3.9779e-17 
6443.50 4.0141e-17 
6445.00 3.6403e-17 
6446.50 3.4820e-17 
6448.00 5.1763e-17 
6449.50 4.0760e-17 
6451.00 4.6458e-17 
6452.50 4.8610e-17 
6454.00 4.1610e-17 
6455.50 4.1296e-17 
6457.00 4.6133e-17 
6458.50 4.1964e-17 
6460.00 4.2288e-17 
6461.50 3.9835e-17 
6463.00 3.6776e-17 
6464.50 3.8859e-17 
6466.00 4.1109e-17 
6467.50 4.2246e-17 
6469.00 4.4812e-17 
6470.50 4.7530e-17 
6472.00 4.1384e-17 
6473.50 4.1147e-17 
6475.00 4.4199e-17 
6476.50 4.3775e-17 
6478.00 4.0872e-17 
6479.50 3.8186e-17 
6481.00 3.4441e-17 
6482.50 3.7458e-17 
6484.00 4.2198e-17 
6485.50 4.2583e-17 
6487.00 3.8520e-17 
6488.50 3.7013e-17 
6490.00 3.6973e-17 
6491.50 3.7800e-17 
6493.00 4.1612e-17 
6494.50 4.1154e-17 
6496.00 4.0270e-17 
6497.50 4.4410e-17 
6499.00 4.1562e-17 
6500.50 3.8346e-17 
6502.00 4.4390e-17 
6503.50 4.2904e-17 
6505.00 3.9665e-17 
6506.50 4.3234e-17 
6508.00 4.4141e-17 
6509.50 4.4439e-17 
6511.00 3.8641e-17 
6512.50 3.7817e-17 
6514.00 4.3248e-17 
6515.50 4.3368e-17 
6517.00 3.9875e-17 
6518.50 4.0310e-17 
6520.00 4.3563e-17 
6521.50 4.4552e-17 
6523.00 4.0611e-17 
6524.50 3.9463e-17 
6526.00 3.8546e-17 
6527.50 3.7080e-17 
6529.00 4.2822e-17 
6530.50 4.5120e-17 
6532.00 4.2084e-17 
6533.50 3.9174e-17 
6535.00 3.7705e-17 
6536.50 3.8349e-17 
6538.00 3.7473e-17 
6539.50 3.5868e-17 
6541.00 3.9487e-17 
6542.50 3.9461e-17 
6544.00 3.5968e-17 
6545.50 3.5618e-17 
6547.00 3.6191e-17 
6548.50 3.4122e-17 
6550.00 3.2038e-17 
6551.50 3.5402e-17 
6553.00 4.0466e-17 
6554.50 3.8192e-17 
6556.00 3.4464e-17 
6557.50 3.3188e-17 
6559.00 3.4949e-17 
6560.50 3.6926e-17 
6562.00 3.7249e-17 
6563.50 3.4623e-17 
6565.00 3.0283e-17 
6566.50 2.8223e-17 
6568.00 3.4179e-17 
6569.50 4.0312e-17 
6571.00 3.8277e-17 
6572.50 3.7454e-17 
6574.00 3.6575e-17 
6575.50 3.9270e-17 
6577.00 4.3387e-17 
6578.50 4.0305e-17 
6580.00 3.6269e-17 
6581.50 3.8678e-17 
6583.00 3.8475e-17 
6584.50 3.9109e-17 
6586.00 3.6711e-17 
6587.50 2.8732e-17 
6589.00 3.8166e-17 
6590.50 3.2616e-17 
6592.00 2.8435e-17 
6593.50 3.7666e-17 
6595.00 3.8001e-17 
6596.50 3.8797e-17 
6598.00 3.4584e-17 
6599.50 3.1334e-17 
6601.00 3.4371e-17 
6602.50 4.2591e-17 
6604.00 4.4419e-17 
6605.50 3.5892e-17 
6607.00 3.7424e-17 
6608.50 4.1301e-17 
6610.00 3.6609e-17 
6611.50 4.1583e-17 
6613.00 4.4001e-17 
6614.50 3.7702e-17 
6616.00 3.8346e-17 
6617.50 4.0129e-17 
6619.00 3.6532e-17 
6620.50 3.5210e-17 
6622.00 3.5052e-17 
6623.50 3.5334e-17 
6625.00 3.5654e-17 
6626.50 3.9527e-17 
6628.00 4.2422e-17 
6629.50 4.2664e-17 
6631.00 4.1201e-17 
6632.50 3.9030e-17 
6634.00 3.9881e-17 
6635.50 4.1214e-17 
6637.00 4.0157e-17 
6638.50 3.8686e-17 
6640.00 3.9121e-17 
6641.50 4.2284e-17 
6643.00 4.3360e-17 
6644.50 4.0633e-17 
6646.00 3.8874e-17 
6647.50 3.9369e-17 
6649.00 3.9791e-17 
6650.50 3.8597e-17 
6652.00 3.6523e-17 
6653.50 3.6128e-17 
6655.00 3.8371e-17 
6656.50 4.1022e-17 
6658.00 3.9126e-17 
6659.50 3.5297e-17 
6661.00 3.7518e-17 
6662.50 4.1065e-17 
6664.00 4.0056e-17 
6665.50 3.7462e-17 
6667.00 3.6548e-17 
6668.50 3.9163e-17 
6670.00 3.9124e-17 
6671.50 3.3902e-17 
6673.00 3.3493e-17 
6674.50 3.9828e-17 
6676.00 3.8828e-17 
6677.50 3.6284e-17 
6679.00 4.1487e-17 
6680.50 4.4807e-17 
6682.00 4.1513e-17 
6683.50 3.6971e-17 
6685.00 3.2952e-17 
6686.50 3.3002e-17 
6688.00 3.4170e-17 
6689.50 3.3610e-17 
6691.00 3.6183e-17 
6692.50 3.6828e-17 
6694.00 3.8700e-17 
6695.50 3.9528e-17 
6697.00 3.2592e-17 
6698.50 4.0691e-17 
6700.00 3.9609e-17 
6701.50 3.5114e-17 
6703.00 3.7037e-17 
6704.50 3.9910e-17 
6706.00 4.0701e-17 
6707.50 4.0754e-17 
6709.00 3.9440e-17 
6710.50 3.5273e-17 
6712.00 3.3371e-17 
6713.50 3.7412e-17 
6715.00 4.0693e-17 
6716.50 3.7643e-17 
6718.00 3.1513e-17 
6719.50 2.7928e-17 
6721.00 2.9639e-17 
6722.50 3.4395e-17 
6724.00 3.8427e-17 
6725.50 3.8759e-17 
6727.00 3.6799e-17 
6728.50 3.4644e-17 
6730.00 3.3776e-17 
6731.50 3.4387e-17 
6733.00 3.4343e-17 
6734.50 2.7646e-17 
6736.00 4.2489e-17 
6737.50 3.6510e-17 
6739.00 3.0839e-17 
6740.50 3.2862e-17 
6742.00 3.4776e-17 
6743.50 3.6429e-17 
6745.00 3.8838e-17 
6746.50 4.0364e-17 
6748.00 3.8972e-17 
6749.50 3.3541e-17 
6751.00 3.5706e-17 
6752.50 4.0170e-17 
6754.00 3.7016e-17 
6755.50 3.5914e-17 
6757.00 3.6900e-17 
6758.50 3.0731e-17 
6760.00 2.6131e-17 
6761.50 3.1892e-17 
6763.00 3.8992e-17 
6764.50 4.2153e-17 
6766.00 4.2432e-17 
6767.50 3.9033e-17 
6769.00 3.9994e-17 
6770.50 3.5528e-17 
6772.00 3.1617e-17 
6773.50 3.5602e-17 
6775.00 2.7133e-17 
6776.50 3.3349e-17 
6778.00 3.4784e-17 
6779.50 3.6913e-17 
6781.00 3.2656e-17 
6782.50 2.3948e-17 
6784.00 4.3218e-17 
6785.50 4.1375e-17 
6787.00 3.4436e-17 
6788.50 3.4283e-17 
6790.00 3.4590e-17 
6791.50 3.3775e-17 
6793.00 3.3251e-17 
6794.50 3.3552e-17 
6796.00 3.5386e-17 
6797.50 3.9494e-17 
6799.00 4.0652e-17 
6800.50 3.5698e-17 
6802.00 3.4142e-17 
6803.50 3.9520e-17 
6805.00 3.8393e-17 
6806.50 3.2093e-17 
6808.00 3.3996e-17 
6809.50 3.6900e-17 
6811.00 3.8008e-17 
6812.50 3.7020e-17 
6814.00 3.5644e-17 
6815.50 3.7646e-17 
6817.00 3.9166e-17 
6818.50 3.0914e-17 
6820.00 3.0485e-17 
6821.50 3.3581e-17 
6823.00 3.7022e-17 
6824.50 3.9313e-17 
6826.00 3.5788e-17 
6827.50 2.7773e-17 
6829.00 2.5939e-17 
6830.50 2.8920e-17 
6832.00 3.2192e-17 
6833.50 3.8316e-17 
6835.00 4.1325e-17 
6836.50 3.5202e-17 
6838.00 3.2074e-17 
6839.50 3.4244e-17 
6841.00 3.3854e-17 
6842.50 3.0481e-17 
6844.00 3.5918e-17 
6845.50 4.4558e-17 
6847.00 3.7702e-17 
6848.50 3.2184e-17 
6850.00 3.7131e-17 
6851.50 4.4744e-17 
6853.00 4.1488e-17 
6854.50 3.6933e-17 
6856.00 3.5673e-17 
6857.50 3.4984e-17 
6859.00 3.2416e-17 
6860.50 3.5440e-17 
6862.00 3.9116e-17 
6863.50 3.5464e-17 
6865.00 3.0732e-17 
6866.50 3.4425e-17 
6868.00 4.0199e-17 
6869.50 3.6351e-17 
6871.00 3.5832e-17 
6872.50 3.6854e-17 
6874.00 3.7681e-17 
6875.50 3.8400e-17 
6877.00 3.9546e-17 
6878.50 3.6839e-17 
6880.00 3.0904e-17 
6881.50 3.1553e-17 
6883.00 3.4027e-17 
6884.50 3.5167e-17 
6886.00 3.4653e-17 
6887.50 3.6417e-17 
6889.00 4.0178e-17 
6890.50 4.0587e-17 
6892.00 3.7505e-17 
6893.50 3.5899e-17 
6895.00 3.8027e-17 
6896.50 4.1751e-17 
6898.00 4.1932e-17 
6899.50 3.5813e-17 
6901.00 3.0717e-17 
6902.50 3.3662e-17 
6904.00 3.7103e-17 
6905.50 3.3152e-17 
6907.00 3.8157e-17 
6908.50 3.4079e-17 
6910.00 3.6336e-17 
6911.50 3.9158e-17 
6913.00 4.2973e-17 
6914.50 4.2460e-17 
6916.00 4.2001e-17 
6917.50 4.2922e-17 
6919.00 3.5937e-17 
6920.50 3.2117e-17 
6922.00 3.8909e-17 
6923.50 3.2526e-17 
6925.00 3.6496e-17 
6926.50 3.7642e-17 
6928.00 3.6216e-17 
6929.50 3.3762e-17 
6931.00 3.3718e-17 
6932.50 4.1671e-17 
6934.00 3.8432e-17 
6935.50 2.9428e-17 
6937.00 3.4595e-17 
6938.50 3.5992e-17 
6940.00 3.3545e-17 
6941.50 3.7248e-17 
6943.00 3.9858e-17 
6944.50 3.7700e-17 
6946.00 3.5333e-17 
6947.50 3.2149e-17 
6949.00 3.6116e-17 
6950.50 4.6302e-17 
6952.00 4.6301e-17 
6953.50 3.1815e-17 
6955.00 2.8806e-17 
6956.50 3.3816e-17 
6958.00 3.5644e-17 
6959.50 3.6502e-17 
6961.00 3.7372e-17 
6962.50 3.9331e-17 
6964.00 3.8853e-17 
6965.50 3.8760e-17 
6967.00 3.7820e-17 
6968.50 3.4232e-17 
6970.00 3.2272e-17 
6971.50 3.3851e-17 
6973.00 3.5702e-17 
6974.50 3.8473e-17 
6976.00 3.6274e-17 
6977.50 4.0938e-17 
6979.00 3.4773e-17 
6980.50 3.4987e-17 
6982.00 4.8394e-17 
6983.50 3.0644e-17 
6985.00 3.3673e-17 
6986.50 3.7987e-17 
6988.00 3.8167e-17 
6989.50 3.9540e-17 
6991.00 4.2074e-17 
6992.50 3.9687e-17 
6994.00 2.9734e-17 
6995.50 3.2554e-17 
6997.00 4.1497e-17 
6998.50 4.4345e-17 
7000.00 4.0365e-17 
7001.50 4.0474e-17 
7003.00 3.4771e-17 
7004.50 4.0374e-17 
7006.00 4.0776e-17 
7007.50 3.5725e-17 
7009.00 3.3119e-17 
7010.50 3.8287e-17 
7012.00 4.2410e-17 
7013.50 4.0939e-17 
7015.00 4.1956e-17 
7016.50 4.2334e-17 
7018.00 4.1540e-17 
7019.50 4.2227e-17 
7021.00 4.0402e-17 
7022.50 4.2254e-17 
7024.00 4.1840e-17 
7025.50 4.3665e-17 
7027.00 4.6649e-17 
7028.50 4.1228e-17 
7030.00 3.5974e-17 
7031.50 3.9975e-17 
7033.00 4.3904e-17 
7034.50 3.8964e-17 
7036.00 3.5871e-17 
7037.50 4.1822e-17 
7039.00 4.3876e-17 
7040.50 3.5954e-17 
7042.00 3.3177e-17 
7043.50 3.5898e-17 
7045.00 4.5194e-17 
7046.50 4.4736e-17 
7048.00 3.9975e-17 
7049.50 3.9497e-17 
7051.00 4.1344e-17 
7052.50 4.3660e-17 
7054.00 4.5376e-17 
7055.50 4.3892e-17 
7057.00 4.1929e-17 
7058.50 4.3115e-17 
7060.00 4.0095e-17 
7061.50 4.0196e-17 
7063.00 3.6147e-17 
7064.50 4.3041e-17 
7066.00 3.9698e-17 
7067.50 4.0412e-17 
7069.00 3.7594e-17 
7070.50 3.6241e-17 
7072.00 3.6352e-17 
7073.50 3.8145e-17 
7075.00 4.4176e-17 
7076.50 3.9988e-17 
7078.00 3.8826e-17 
7079.50 4.1966e-17 
7081.00 4.0710e-17 
7082.50 3.9169e-17 
7084.00 4.0196e-17 
7085.50 3.9831e-17 
7087.00 4.3338e-17 
7088.50 4.8777e-17 
7090.00 4.7565e-17 
7091.50 4.4677e-17 
7093.00 4.5323e-17 
7094.50 4.0370e-17 
7096.00 4.3686e-17 
7097.50 4.1128e-17 
7099.00 5.0424e-17 
7100.50 3.9119e-17 
7102.00 3.6126e-17 
7103.50 4.2081e-17 
7105.00 4.5114e-17 
7106.50 4.2433e-17 
7108.00 4.3949e-17 
7109.50 4.7938e-17 
7111.00 4.4979e-17 
7112.50 4.0127e-17 
7114.00 4.3541e-17 
7115.50 4.7718e-17 
7117.00 4.1244e-17 
7118.50 4.2659e-17 
7120.00 4.1181e-17 
7121.50 4.4341e-17 
7123.00 4.7800e-17 
7124.50 4.6520e-17 
7126.00 4.3834e-17 
7127.50 4.6180e-17 
7129.00 5.0122e-17 
7130.50 4.5775e-17 
7132.00 4.5675e-17 
7133.50 4.9953e-17 
7135.00 5.0306e-17 
7136.50 5.0977e-17 
7138.00 4.7792e-17 
7139.50 4.6547e-17 
7141.00 4.8622e-17 
7142.50 5.0844e-17 
7144.00 5.0971e-17 
7145.50 5.0446e-17 
7147.00 5.0939e-17 
7148.50 4.9560e-17 
7150.00 4.6030e-17 
7151.50 4.4058e-17 
7153.00 5.1187e-17 
7154.50 5.5708e-17 
7156.00 5.5064e-17 
7157.50 5.4705e-17 
7159.00 5.6204e-17 
7160.50 5.7388e-17 
7162.00 5.3889e-17 
7163.50 4.8784e-17 
7165.00 5.5230e-17 
7166.50 5.4756e-17 
7168.00 6.8674e-17 
7169.50 5.8551e-17 
7171.00 5.3449e-17 
7172.50 5.9421e-17 
7174.00 6.2976e-17 
7175.50 6.6536e-17 
7177.00 6.8671e-17 
7178.50 6.5257e-17 
7180.00 5.8852e-17 
7181.50 5.6602e-17 
7183.00 6.2390e-17 
7184.50 5.3351e-17 
7186.00 6.0705e-17 
7187.50 6.5825e-17 
7189.00 6.0410e-17 
7190.50 5.7546e-17 
7192.00 5.6041e-17 
7193.50 5.3708e-17 
7195.00 5.3115e-17 
7196.50 5.7237e-17 
7198.00 6.5622e-17 
7199.50 5.4185e-17 
7201.00 6.0864e-17 
7202.50 5.8640e-17 
7204.00 5.8600e-17 
7205.50 5.8026e-17 
7207.00 5.6901e-17 
7208.50 5.6711e-17 
7210.00 5.7478e-17 
7211.50 5.6934e-17 
7213.00 5.4208e-17 
7214.50 5.7586e-17 
7216.00 4.9873e-17 
7217.50 6.1694e-17 
7219.00 5.1165e-17 
7220.50 4.6774e-17 
7222.00 5.1372e-17 
7223.50 5.4247e-17 
7225.00 4.6829e-17 
7226.50 4.0504e-17 
7228.00 5.3275e-17 
7229.50 4.4548e-17 
7231.00 4.3924e-17 
7232.50 5.3739e-17 
7234.00 4.3455e-17 
7235.50 3.7717e-17 
7237.00 3.8869e-17 
7238.50 4.3839e-17 
7240.00 4.8545e-17 
7241.50 5.0302e-17 
7243.00 4.9138e-17 
7244.50 4.8084e-17 
7246.00 6.2955e-17 
7247.50 4.7953e-17 
7249.00 4.2192e-17 
7250.50 4.0714e-17 
7252.00 4.2445e-17 
7253.50 4.5689e-17 
7255.00 4.3580e-17 
7256.50 3.7447e-17 
7258.00 4.2075e-17 
7259.50 4.5295e-17 
7261.00 4.4327e-17 
7262.50 3.8826e-17 
7264.00 3.9349e-17 
7265.50 3.7415e-17 
7267.00 3.6410e-17 
7268.50 3.8046e-17 
7270.00 4.0126e-17 
7271.50 4.0644e-17 
7273.00 4.2078e-17 
7274.50 4.4632e-17 
7276.00 4.7340e-17 
7277.50 4.4816e-17 
7279.00 5.1166e-17 
7280.50 4.8276e-17 
7282.00 3.2002e-17 
7283.50 2.6742e-17 
7285.00 3.4454e-17 
7286.50 2.6225e-17 
7288.00 4.0444e-17 
7289.50 4.5424e-17 
7291.00 3.7720e-17 
7292.50 4.0344e-17 
7294.00 4.2205e-17 
7295.50 4.0463e-17 
7297.00 3.9593e-17 
7298.50 3.9182e-17 
7300.00 3.5667e-17 
7301.50 3.5605e-17 
7303.00 4.1019e-17 
7304.50 4.4410e-17 
7306.00 4.6301e-17 
7307.50 4.4782e-17 
7309.00 4.0678e-17 
7310.50 3.9546e-17 
7312.00 4.1423e-17 
7313.50 4.1287e-17 
7315.00 3.6737e-17 
7316.50 3.0662e-17 
7318.00 4.5598e-17 
7319.50 4.5163e-17 
7321.00 3.2222e-17 
7322.50 3.1298e-17 
7324.00 3.6696e-17 
7325.50 3.9868e-17 
7327.00 3.9171e-17 
7328.50 3.6139e-17 
7330.00 3.2187e-17 
7331.50 3.1181e-17 
7333.00 3.3981e-17 
7334.50 3.9642e-17 
7336.00 4.1297e-17 
7337.50 3.8935e-17 
7339.00 3.9280e-17 
7340.50 4.4306e-17 
7342.00 4.3484e-17 
7343.50 3.6937e-17 
7345.00 3.4790e-17 
7346.50 3.4114e-17 
7348.00 3.3669e-17 
7349.50 3.2575e-17 
7351.00 3.3936e-17 
7352.50 3.8505e-17 
7354.00 4.1720e-17 
7355.50 3.7259e-17 
7357.00 3.7657e-17 
7358.50 3.9652e-17 
7360.00 3.0539e-17 
7361.50 3.0230e-17 
7363.00 3.8728e-17 
7364.50 4.7094e-17 
7366.00 4.8022e-17 
7367.50 4.0344e-17 
7369.00 2.5989e-17 
7370.50 2.8088e-17 
7372.00 4.1506e-17 
7373.50 3.9141e-17 
7375.00 3.3630e-17 
7376.50 2.8280e-17 
7378.00 2.6547e-17 
7379.50 3.0192e-17 
7381.00 3.5478e-17 
7382.50 3.0652e-17 
7384.00 3.0729e-17 
7385.50 3.5232e-17 
7387.00 3.8423e-17 
7388.50 3.8550e-17 
7390.00 3.6508e-17 
7391.50 3.5633e-17 
7393.00 3.8873e-17 
7394.50 4.4243e-17 
7396.00 4.3111e-17 
7397.50 3.6954e-17 
7399.00 3.4915e-17 
7400.50 3.5708e-17 
7402.00 3.7941e-17 
7403.50 3.8832e-17 
7405.00 3.7388e-17 
7406.50 3.7296e-17 
7408.00 4.4507e-17 
7409.50 4.0458e-17 
7411.00 3.2825e-17 
7412.50 3.0713e-17 
7414.00 3.3308e-17 
7415.50 3.6894e-17 
7417.00 3.8314e-17 
7418.50 3.6786e-17 
7420.00 3.3174e-17 
7421.50 3.3912e-17 
7423.00 3.7407e-17 
7424.50 4.2135e-17 
7426.00 4.5300e-17 
7427.50 4.3344e-17 
7429.00 3.6245e-17 
7430.50 2.8617e-17 
7432.00 2.6708e-17 
7433.50 2.9480e-17 
7435.00 3.1956e-17 
7436.50 3.3400e-17 
7438.00 3.2302e-17 
7439.50 3.2614e-17 
7441.00 3.6424e-17 
7442.50 4.0375e-17 
7444.00 3.6118e-17 
7445.50 3.0158e-17 
7447.00 3.0700e-17 
7448.50 3.2620e-17 
7450.00 3.4158e-17 
7451.50 3.5472e-17 
7453.00 3.7164e-17 
7454.50 3.9020e-17 
7456.00 3.8800e-17 
7457.50 3.3673e-17 
7459.00 3.0803e-17 
7460.50 3.1515e-17 
7462.00 3.2596e-17 
7463.50 3.2147e-17 
7465.00 3.0915e-17 
7466.50 3.1583e-17 
7468.00 3.5676e-17 
7469.50 4.2135e-17 
7471.00 3.4173e-17 
7472.50 3.5055e-17 
7474.00 3.9706e-17 
7475.50 4.0418e-17 
7477.00 3.5432e-17 
7478.50 3.1308e-17 
7480.00 3.3026e-17 
7481.50 3.5357e-17 
7483.00 3.5024e-17 
7484.50 3.3775e-17 
7486.00 3.2320e-17 
7487.50 3.2483e-17 
7489.00 3.5663e-17 
7490.50 4.0635e-17 
7492.00 3.6233e-17 
7493.50 3.1565e-17 
7495.00 3.1874e-17 
7496.50 3.2829e-17 
7498.00 3.3160e-17 
7499.50 3.4035e-17 
7501.00 3.7398e-17 
7502.50 4.2912e-17 
7504.00 4.3338e-17 
7505.50 3.6915e-17 
7507.00 3.3763e-17 
7508.50 3.3179e-17 
7510.00 3.4399e-17 
7511.50 3.5983e-17 
7513.00 3.5967e-17 
7514.50 3.4693e-17 
7516.00 3.6806e-17 
7517.50 3.8127e-17 
7519.00 3.2842e-17 
7520.50 3.1683e-17 
7522.00 3.6354e-17 
7523.50 3.8391e-17 
7525.00 2.5479e-17 
7526.50 4.3414e-17 
7528.00 4.0718e-17 
7529.50 4.0115e-17 
7531.00 4.0391e-17 
7532.50 3.9068e-17 
7534.00 3.6509e-17 
7535.50 3.6834e-17 
7537.00 3.5080e-17 
7538.50 3.3711e-17 
7540.00 4.0825e-17 
7541.50 4.1427e-17 
7543.00 3.8335e-17 
7544.50 3.5528e-17 
7546.00 3.4443e-17 
7547.50 3.4896e-17 
7549.00 2.9643e-17 
7550.50 3.1086e-17 
7552.00 3.3044e-17 
7553.50 3.2516e-17 
7555.00 3.1551e-17 
7556.50 3.4076e-17 
7558.00 4.1236e-17 
7559.50 4.1600e-17 
7561.00 3.6539e-17 
7562.50 3.6879e-17 
7564.00 3.8453e-17 
7565.50 3.8204e-17 
7567.00 3.3567e-17 
7568.50 2.3182e-17 
7570.00 3.1144e-17 
7571.50 3.1109e-17 
7573.00 2.8203e-17 
7574.50 3.4194e-17 
7576.00 3.6554e-17 
7577.50 3.1508e-17 
7579.00 3.4428e-17 
7580.50 3.6292e-17 
7582.00 3.6674e-17 
7583.50 3.5874e-17 
7585.00 3.3848e-17 
7586.50 3.3118e-17 
7588.00 3.3012e-17 
7589.50 2.9860e-17 
7591.00 3.0633e-17 
7592.50 3.2414e-17 
7594.00 3.2862e-17 
7595.50 3.2885e-17 
7597.00 3.3468e-17 
7598.50 3.5983e-17 
7600.00 4.0887e-17 
7601.50 3.9530e-17 
7603.00 5.3265e-17 
7604.50 5.0493e-17 
7606.00 4.7077e-17 
7607.50 4.7957e-17 
7609.00 5.1216e-17 
7610.50 5.0012e-17 
7612.00 4.0824e-17 
7613.50 4.5305e-17 
7615.00 4.0897e-17 
7616.50 3.4979e-17 
7618.00 3.4560e-17 
7619.50 3.9079e-17 
7621.00 4.0319e-17 
7622.50 4.6880e-17 
7624.00 5.0826e-17 
7625.50 4.7401e-17 
7627.00 3.9447e-17 
7628.50 3.3081e-17 
7630.00 3.1884e-17 
7631.50 3.3744e-17 
7633.00 2.7879e-17 
7634.50 3.4480e-17 
7636.00 3.8556e-17 
7637.50 4.0924e-17 
7639.00 4.1221e-17 
7640.50 3.9357e-17 
7642.00 3.6270e-17 
7643.50 3.4315e-17 
7645.00 3.4291e-17 
7646.50 3.6177e-17 
7648.00 3.5649e-17 
7649.50 3.2182e-17 
7651.00 2.8987e-17 
7652.50 3.4765e-17 
7654.00 4.4677e-17 
7655.50 3.5799e-17 
7657.00 3.3287e-17 
7658.50 3.4575e-17 
7660.00 3.6001e-17 
7661.50 3.5515e-17 
7663.00 3.4961e-17 
7664.50 3.7248e-17 
7666.00 2.8689e-17 
7667.50 3.0152e-17 
7669.00 3.4530e-17 
7670.50 3.4578e-17 
7672.00 3.2440e-17 
7673.50 2.8207e-17 
7675.00 3.2323e-17 
7676.50 3.4044e-17 
7678.00 2.9651e-17 
7679.50 2.4971e-17 
7681.00 2.7510e-17 
7682.50 3.5228e-17 
7684.00 4.0344e-17 
7685.50 4.2037e-17 
7687.00 4.4164e-17 
7688.50 4.1324e-17 
7690.00 3.3931e-17 
7691.50 2.9119e-17 
7693.00 2.7650e-17 
7694.50 3.6300e-17 
7696.00 3.1480e-17 
7697.50 3.1189e-17 
7699.00 3.2220e-17 
7700.50 2.8606e-17 
7702.00 2.8884e-17 
7703.50 3.8103e-17 
7705.00 4.1460e-17 
7706.50 4.0468e-17 
7708.00 3.3810e-17 
7709.50 2.6110e-17 
7711.00 2.7164e-17 
7712.50 3.1772e-17 
7714.00 2.8068e-17 
7715.50 3.4021e-17 
7717.00 3.4213e-17 
7718.50 2.9786e-17 
7720.00 2.7593e-17 
7721.50 3.0809e-17 
7723.00 3.3295e-17 
7724.50 3.2045e-17 
7726.00 2.9827e-17 
7727.50 3.1059e-17 
7729.00 3.4726e-17 
7730.50 3.1331e-17 
7732.00 2.5795e-17 
7733.50 3.0624e-17 
7735.00 3.8431e-17 
7736.50 4.4085e-17 
7738.00 4.3596e-17 
7739.50 3.5412e-17 
7741.00 3.0629e-17 
7742.50 3.6487e-17 
7744.00 3.3773e-17 
7745.50 2.6696e-17 
7747.00 2.3849e-17 
7748.50 3.0116e-17 
7750.00 3.0654e-17 
7751.50 2.1224e-17 
7753.00 3.2591e-17 
7754.50 3.1132e-17 
7756.00 2.3858e-17 
7757.50 2.2342e-17 
7759.00 3.7231e-17 
7760.50 2.3664e-17 
7762.00 2.9374e-17 
7763.50 3.9928e-17 
7765.00 3.9118e-17 
7766.50 2.9242e-17 
7768.00 3.1715e-17 
7769.50 3.4780e-17 
7771.00 2.4518e-17 
7772.50 3.1182e-17 
7774.00 3.2008e-17 
7775.50 2.5383e-17 
7777.00 2.3287e-17 
7778.50 3.3700e-17 
7780.00 3.0290e-17 
7781.50 2.7025e-17 
7783.00 2.1505e-17 
7784.50 1.9183e-17 
7786.00 2.5887e-17 
7787.50 2.6858e-17 
7789.00 3.5783e-17 
7790.50 3.0673e-17 
7792.00 2.7697e-17 
7793.50 3.1055e-17 
7795.00 3.7787e-17 
7796.50 2.2912e-17 
7798.00 3.9610e-17 
7799.50 2.8584e-17 
7801.00 2.7425e-17 
7802.50 3.3562e-17 
7804.00 3.6710e-17 
7805.50 2.8923e-17 
7807.00 3.7955e-17 
7808.50 3.7338e-17 
7810.00 3.0433e-17 
7811.50 3.1625e-17 
7813.00 4.4797e-17 
7814.50 2.4554e-17 
7816.00 2.8116e-17 
7817.50 2.3143e-17 
7819.00 2.4558e-17 
7820.50 2.5857e-17 
7822.00 2.1556e-17 
7823.50 2.2447e-17 
7825.00 3.7561e-17 
7826.50 3.7679e-17 
7828.00 3.1608e-17 
7829.50 2.6596e-17 
7831.00 2.8347e-17 
7832.50 3.7820e-17 
7834.00 2.0805e-17 
7835.50 2.3909e-17 
7837.00 3.0651e-17 
7838.50 3.3250e-17 
7840.00 2.9699e-17 
7841.50 4.3972e-17 
7843.00 2.0701e-17 
7844.50 3.2707e-17 
7846.00 3.7465e-17 
7847.50 3.4606e-17 
7849.00 3.3008e-17 
7850.50 3.1046e-17 
7852.00 3.3302e-17 
7853.50 3.3104e-17 
7855.00 3.7231e-17 
7856.50 3.8454e-17 
7858.00 2.5892e-17 
7859.50 2.1958e-17 
7861.00 2.8306e-17 
7862.50 2.4604e-17 
7864.00 1.6776e-17 
7865.50 1.2571e-17 
7867.00 2.1895e-17 
7868.50 2.6051e-17 
7870.00 3.5607e-17 
7871.50 3.5585e-17 
7873.00 3.7864e-17 
7874.50 4.3343e-17 
7876.00 3.9032e-17 
7877.50 2.7803e-17 
7879.00 2.9249e-17 
7880.50 2.2923e-17 
7882.00 2.2365e-17 
7883.50 3.0210e-17 
7885.00 1.3121e-17 
7886.50 3.1337e-17 
7888.00 3.1217e-17 
7889.50 3.1424e-17 
7891.00 3.1300e-17 
7892.50 2.7834e-17 
7894.00 1.9481e-17 
7895.50 3.4752e-17 
7897.00 3.2308e-17 
7898.50 3.0243e-17 
7900.00 3.2226e-17 
7901.50 3.6293e-17 
7903.00 2.9793e-17 
7904.50 2.8243e-17 
7906.00 3.4371e-17 
7907.50 3.5866e-17 
7909.00 3.0238e-17 
7910.50 2.9246e-17 
7912.00 2.7063e-17 
7913.50 3.1576e-17 
7915.00 2.4405e-17 
7916.50 2.2196e-17 
7918.00 3.6992e-17 
7919.50 3.3599e-17 
7921.00 2.5180e-17 
7922.50 2.9396e-17 
7924.00 2.8701e-17 
7925.50 2.0756e-17 
7927.00 9.4234e-18 
7928.50 3.7287e-17 
7930.00 2.7280e-17 
7931.50 3.0689e-17 
7933.00 3.4958e-17 
7934.50 3.4210e-17 
7936.00 3.5814e-17 
7937.50 3.0258e-17 
7939.00 3.8598e-17 
7940.50 3.6592e-17 
7942.00 3.0212e-17 
7943.50 3.1010e-17 
7945.00 3.4664e-17 
7946.50 3.4526e-17 
7948.00 3.4583e-17 
7949.50 2.8690e-17 
7951.00 1.9940e-17 
7952.50 2.6125e-17 
7954.00 2.6715e-17 
7955.50 2.5228e-17 
7957.00 2.8293e-17 
7958.50 2.8142e-17 
7960.00 1.8511e-17 
7961.50 3.7709e-17 
7963.00 3.2431e-17 
7964.50 3.4294e-17 
7966.00 3.2704e-17 
7967.50 2.6161e-17 
7969.00 2.1811e-17 
7970.50 4.6583e-17 
7972.00 2.6519e-17 
7973.50 2.1731e-17 
7975.00 2.3883e-17 
7976.50 1.8429e-17 
7978.00 2.4037e-17 
7979.50 3.1497e-17 
7981.00 3.0959e-17 
7982.50 3.2978e-17 
7984.00 3.8551e-17 
7985.50 3.4292e-17 
7987.00 3.4431e-17 
7988.50 3.4036e-17 
7990.00 3.3979e-17 
7991.50 3.4897e-17 
7993.00 3.7513e-17 
7994.50 5.2305e-17 
7996.00 4.2736e-17 
7997.50 3.0581e-17 
7999.00 2.3790e-17 
8000.50 2.6258e-17 
8002.00 3.1959e-17 
8003.50 3.1615e-17 
8005.00 3.2396e-17 
8006.50 3.4577e-17 
8008.00 3.6831e-17 
8009.50 3.5911e-17 
8011.00 3.8240e-17 
8012.50 3.3183e-17 
8014.00 3.0026e-17 
8015.50 2.5758e-17 
8017.00 1.7657e-17 
8018.50 3.5755e-17 
8020.00 2.9774e-17 
8021.50 3.0797e-17 
8023.00 3.1877e-17 
8024.50 3.0502e-17 
8026.00 3.2756e-17 
8027.50 2.4500e-17 
8029.00 3.1595e-17 
8030.50 4.0626e-17 
8032.00 4.3552e-17 
8033.50 2.7408e-17 
8035.00 3.5309e-17 
8036.50 3.3084e-17 
8038.00 3.5511e-17 
8039.50 4.0855e-17 
8041.00 4.5232e-17 
8042.50 3.5648e-17 
8044.00 3.5560e-17 
8045.50 3.3582e-17 
8047.00 3.5081e-17 
8048.50 4.1042e-17 
8050.00 2.1814e-17 
8051.50 3.5037e-17 
8053.00 4.1695e-17 
8054.50 4.1305e-17 
8056.00 3.3529e-17 
8057.50 1.7111e-17 
8059.00 3.3427e-17 
8060.50 3.1124e-17 
8062.00 2.8733e-17 
8063.50 2.8867e-17 
8065.00 2.9461e-17 
8066.50 2.8920e-17 
8068.00 2.7579e-17 
8069.50 2.9704e-17 
8071.00 3.2580e-17 
8072.50 3.1511e-17 
8074.00 3.4910e-17 
8075.50 2.5517e-17 
8077.00 2.6911e-17 
8078.50 3.0720e-17 
8080.00 2.8268e-17 
8081.50 3.1835e-17 
8083.00 3.5562e-17 
8084.50 3.3446e-17 
8086.00 3.0059e-17 
8087.50 2.8538e-17 
8089.00 3.0110e-17 
8090.50 3.2661e-17 
8092.00 3.2240e-17 
8093.50 2.8761e-17 
8095.00 2.3361e-17 
8096.50 2.4639e-17 
8098.00 2.5265e-17 
8099.50 2.8771e-17 
8101.00 3.1512e-17 
8102.50 3.2763e-17 
8104.00 3.5529e-17 
8105.50 2.5497e-17 
8107.00 2.4147e-17 
8108.50 2.6763e-17 
8110.00 3.1607e-17 
8111.50 3.6239e-17 
8113.00 2.8143e-17 
8114.50 2.3485e-17 
8116.00 2.4621e-17 
8117.50 2.9469e-17 
8119.00 3.0128e-17 
8120.50 2.5110e-17 
8122.00 3.4461e-17 
8123.50 3.7709e-17 
8125.00 3.3760e-17 
8126.50 2.6607e-17 
8128.00 3.4407e-17 
8129.50 3.2250e-17 
8131.00 3.3515e-17 
8132.50 3.6554e-17 
8134.00 3.3945e-17 
8135.50 3.1657e-17 
8137.00 2.7646e-17 
8138.50 2.9720e-17 
8140.00 3.3121e-17 
8141.50 2.5135e-17 
8143.00 2.5171e-17 
8144.50 2.6417e-17 
8146.00 2.9563e-17 
8147.50 3.3094e-17 
8149.00 3.3661e-17 
8150.50 3.1325e-17 
8152.00 3.4397e-17 
8153.50 3.6267e-17 
8155.00 3.5270e-17 
8156.50 2.8471e-17 
8158.00 3.7846e-17 
8159.50 3.2300e-17 
8161.00 3.1752e-17 
8162.50 3.4096e-17 
8164.00 2.7642e-17 
8165.50 3.5100e-17 
8167.00 3.7564e-17 
8168.50 3.4104e-17 
8170.00 2.9101e-17 
8171.50 3.7396e-17 
8173.00 3.2873e-17 
8174.50 2.9355e-17 
8176.00 2.8150e-17 
8177.50 3.0024e-17 
8179.00 3.7611e-17 
8180.50 3.8853e-17 
8182.00 3.1492e-17 
8183.50 2.7959e-17 
8185.00 3.0201e-17 
8186.50 3.2596e-17 
8188.00 3.2374e-17 
8189.50 3.2334e-17 
8191.00 3.3844e-17 
8192.50 3.6464e-17 
8194.00 3.2114e-17 
8195.50 2.7404e-17 
8197.00 2.9992e-17 
8198.50 3.1173e-17 
8200.00 2.7166e-17 
8201.50 2.2603e-17 
8203.00 3.1716e-17 
8204.50 3.2677e-17 
8206.00 3.2348e-17 
8207.50 3.5178e-17 
8209.00 3.5908e-17 
8210.50 4.0755e-17 
8212.00 3.7508e-17 
8213.50 3.1288e-17 
8215.00 2.7739e-17 
8216.50 3.8589e-17 
8218.00 4.4096e-17 
8219.50 4.3180e-17 
8221.00 3.8679e-17 
8222.50 3.5822e-17 
8224.00 3.8998e-17 
8225.50 3.9548e-17 
8227.00 3.8840e-17 
8228.50 3.6857e-17 
8230.00 3.2312e-17 
8231.50 3.0384e-17 
8233.00 3.2276e-17 
8234.50 3.2661e-17 
8236.00 3.0711e-17 
8237.50 3.2118e-17 
8239.00 3.5816e-17 
8240.50 4.1868e-17 
8242.00 4.1442e-17 
8243.50 2.9347e-17 
8245.00 3.1049e-17 
8246.50 2.8503e-17 
8248.00 2.6780e-17 
8249.50 2.8804e-17 
8251.00 3.9524e-17 
8252.50 2.9159e-17 
8254.00 2.5655e-17 
8255.50 2.6953e-17 
8257.00 3.1291e-17 
8258.50 3.4829e-17 
8260.00 3.6408e-17 
8261.50 3.3089e-17 
8263.00 3.2183e-17 
8264.50 3.5156e-17 
8266.00 4.0560e-17 
8267.50 3.6889e-17 
8269.00 3.3570e-17 
8270.50 3.3189e-17 
8272.00 3.7862e-17 
8273.50 3.1443e-17 
8275.00 3.0561e-17 
8276.50 3.1074e-17 
8278.00 3.3894e-17 
8279.50 4.1813e-17 
8281.00 1.7398e-17 
8282.50 4.3627e-17 
8284.00 4.7487e-17 
8285.50 2.7323e-17 
8287.00 2.3561e-17 
8288.50 1.3763e-17 
8290.00 3.3637e-17 
8291.50 4.5663e-17 
8293.00 3.2109e-17 
8294.50 1.6554e-17 
8296.00 3.0236e-17 
8297.50 3.9088e-17 
8299.00 3.8227e-17 
8300.50 1.5313e-17 
8302.00 2.4731e-17 
8303.50 1.4314e-17 
8305.00 1.7607e-17 
8306.50 3.3517e-17 
8308.00 2.8263e-17 
8309.50 4.1368e-17 
8311.00 3.9360e-17 
8312.50 3.5935e-17 
8314.00 3.7992e-17 
8315.50 4.4320e-17 
8317.00 3.6229e-17 
8318.50 2.5889e-17 
8320.00 1.9154e-17 
8321.50 3.1838e-17 
8323.00 2.4580e-17 
8324.50 3.3593e-17 
8326.00 3.7897e-17 
8327.50 3.2914e-17 
8329.00 2.4617e-17 
8330.50 2.8799e-17 
8332.00 2.8607e-17 
8333.50 2.6934e-17 
8335.00 2.6302e-17 
8336.50 2.7417e-17 
8338.00 2.8940e-17 
8339.50 3.3075e-17 
8341.00 3.8313e-17 
8342.50 3.4035e-17 
8344.00 3.6191e-17 
8345.50 5.3651e-17 
8347.00 6.0491e-17 
8348.50 3.5683e-17 
8350.00 3.4010e-17 
8351.50 2.5372e-17 
8353.00 2.7115e-17 
8354.50 3.4223e-17 
8356.00 2.5266e-17 
8357.50 2.1811e-17 
8359.00 2.4564e-17 
8360.50 2.9017e-17 
8362.00 3.3610e-17 
8363.50 3.0816e-17 
8365.00 3.0751e-17 
8366.50 3.2022e-17 
8368.00 3.3278e-17 
8369.50 3.0054e-17 
8371.00 2.6804e-17 
8372.50 2.6611e-17 
8374.00 2.7867e-17 
8375.50 3.0359e-17 
8377.00 2.6331e-17 
8378.50 2.6162e-17 
8380.00 2.6899e-17 
8381.50 2.8104e-17 
8383.00 2.8867e-17 
8384.50 1.9037e-17 
8386.00 1.8479e-17 
8387.50 2.1387e-17 
8389.00 2.6633e-17 
8390.50 3.9336e-17 
8392.00 3.8002e-17 
8393.50 3.1595e-17 
8395.00 2.3593e-17 
8396.50 2.5348e-17 
8398.00 3.2682e-17 
8399.50 3.8974e-17 
8401.00 3.6998e-17 
8402.50 1.9379e-17 
8404.00 5.0940e-17 
8405.50 4.5345e-17 
8407.00 3.8683e-17 
8408.50 3.2654e-17 
8410.00 2.7244e-17 
8411.50 3.3058e-17 
8413.00 2.8367e-17 
8414.50 2.6191e-17 
8416.00 3.9218e-17 
8417.50 3.3282e-17 
8419.00 1.9729e-17 
8420.50 1.6213e-17 
8422.00 2.3676e-17 
8423.50 2.2211e-17 
8425.00 2.3925e-17 
8426.50 2.7127e-17 
8428.00 3.1928e-17 
8429.50 4.0405e-17 
8431.00 5.2670e-17 
8432.50 4.4453e-17 
8434.00 3.6961e-17 
8435.50 3.6120e-17 
8437.00 1.6600e-17 
8438.50 2.5008e-17 
8440.00 2.8283e-17 
8441.50 2.7535e-17 
8443.00 2.6523e-17 
8444.50 3.3389e-17 
8446.00 2.8605e-17 
8447.50 2.4285e-17 
8449.00 3.0595e-17 
8450.50 2.2005e-17 
8452.00 2.7960e-17 
8453.50 3.3853e-17 
8455.00 3.7038e-17 
8456.50 1.4025e-17 
8458.00 2.1945e-17 
8459.50 3.0876e-17 
8461.00 3.6660e-17 
8462.50 2.2618e-17 
8464.00 2.8791e-17 
8465.50 3.1558e-17 
8467.00 3.2058e-17 
8468.50 2.9305e-17 
8470.00 3.0379e-17 
8471.50 2.4542e-17 
8473.00 2.5478e-17 
8474.50 3.3762e-17 
8476.00 2.0806e-17 
8477.50 2.8015e-17 
8479.00 2.6193e-17 
8480.50 2.1551e-17 
8482.00 3.0079e-17 
8483.50 3.6937e-17 
8485.00 3.6909e-17 
8486.50 3.4651e-17 
8488.00 3.1388e-17 
8489.50 3.4347e-17 
8491.00 3.8366e-17 
8492.50 3.5656e-17 
8494.00 2.4543e-17 
8495.50 2.4738e-17 
8497.00 2.4311e-17 
8498.50 2.0995e-17 
8500.00 1.7406e-17 
8501.50 2.8298e-17 
8503.00 2.8135e-17 
8504.50 3.2690e-17 
8506.00 3.4023e-17 
8507.50 1.7754e-17 
8509.00 3.0656e-17 
8510.50 2.9964e-17 
8512.00 2.9159e-17 
8513.50 3.2487e-17 
8515.00 3.0839e-17 
8516.50 2.5999e-17 
8518.00 2.3274e-17 
8519.50 2.3306e-17 
8521.00 3.0816e-17 
8522.50 2.9841e-17 
8524.00 2.9285e-17 
8525.50 2.8062e-17 
8527.00 1.9873e-17 
8528.50 3.1735e-17 
8530.00 2.8667e-17 
8531.50 2.4261e-17 
8533.00 3.3636e-17 
8534.50 3.3457e-17 
8536.00 2.8903e-17 
8537.50 2.6955e-17 
8539.00 3.1939e-17 
8540.50 3.1846e-17 
8542.00 3.9403e-17 
8543.50 3.1192e-17 
8545.00 3.3292e-18 
8546.50 2.9409e-17 
8548.00 2.6645e-17 
8549.50 2.2805e-17 
8551.00 1.8210e-17 
8552.50 1.3690e-17 
8554.00 2.0351e-17 
8555.50 2.1632e-17 
8557.00 1.9681e-17 
8558.50 1.4158e-17 
8560.00 3.1998e-17 
8561.50 2.8567e-17 
8563.00 2.3447e-17 
8564.50 3.4278e-17 
8566.00 3.0856e-17 
8567.50 3.3131e-17 
8569.00 3.4906e-17 
8570.50 3.3404e-17 
8572.00 3.1334e-17 
8573.50 2.5123e-17 
8575.00 2.7311e-17 
8576.50 4.2059e-17 
8578.00 2.5206e-17 
8579.50 2.9713e-17 
8581.00 3.0766e-17 
8582.50 2.7859e-17 
8584.00 2.8847e-17 
8585.50 2.7992e-17 
8587.00 2.3813e-17 
8588.50 1.8042e-17 
8590.00 2.1980e-17 
8591.50 2.4392e-17 
8593.00 3.0587e-17 
8594.50 3.7980e-17 
8596.00 4.0354e-17 
8597.50 3.1953e-17 
8599.00 2.8093e-17 
8600.50 2.6136e-17 
8602.00 2.5543e-17 
8603.50 4.3164e-17 
8605.00 4.5825e-17 
8606.50 4.2984e-17 
8608.00 3.4634e-17 
8609.50 3.4026e-17 
8611.00 3.2738e-17 
8612.50 3.1451e-17 
8614.00 3.0430e-17 
8615.50 5.0343e-17 
8617.00 3.4264e-17 
8618.50 2.3734e-17 
8620.00 3.1468e-17 
8621.50 3.5519e-17 
8623.00 2.1951e-17 
8624.50 1.6359e-17 
8626.00 2.4369e-17 
8627.50 4.1955e-17 
8629.00 4.5135e-17 
8630.50 3.6747e-17 
8632.00 1.5214e-17 
8633.50 1.1606e-17 
8635.00 2.3450e-18 
8636.50 6.9914e-18 
8638.00 2.5046e-17 
8639.50 7.9525e-18 
8641.00 1.5353e-18 
8642.50 2.6922e-18 
8644.00 1.0502e-17 
8645.50 2.5087e-17 
8647.00 2.2086e-17 
8648.50 1.9810e-17 
8650.00 1.9499e-17 
8651.50 4.5571e-17 
8653.00 4.6124e-17 
8654.50 4.6010e-17 
8656.00 4.5836e-17 
8657.50 5.0616e-17 
8659.00 4.0010e-17 
8660.50 3.7416e-17 
8662.00 4.0771e-17 
8663.50 5.9442e-17 
8665.00 2.8750e-17 
8666.50 1.6723e-17 
8668.00 1.6575e-17 
8669.50 3.9383e-17 
8671.00 2.3993e-17 
8672.50 1.5498e-17 
8674.00 1.3889e-17 
8675.50 4.4481e-17 
8677.00 4.1035e-17 
8678.50 3.5929e-17 
8680.00 3.0800e-17 
8681.50 3.2945e-17 
8683.00 3.2249e-17 
8684.50 3.0117e-17 
8686.00 2.7197e-17 
8687.50 2.3600e-17 
8689.00 2.4154e-17 
8690.50 2.4899e-17 
8692.00 2.5392e-17 
8693.50 2.2896e-17 
8695.00 2.3689e-17 
8696.50 2.6660e-17 
8698.00 3.0486e-17 
8699.50 3.2130e-17 
8701.00 2.9784e-17 
8702.50 2.3651e-17 
8704.00 1.6109e-17 
8705.50 1.4279e-17 
8707.00 2.6966e-17 
8708.50 3.0687e-17 
8710.00 2.8669e-17 
8711.50 1.3186e-17 
8713.00 1.7254e-17 
8714.50 2.4659e-17 
8716.00 3.3924e-17 
8717.50 3.8188e-17 
8719.00 3.4964e-17 
8720.50 2.9452e-17 
8722.00 2.2477e-17 
8723.50 1.9803e-17 
8725.00 2.4347e-17 
8726.50 2.7737e-17 
8728.00 3.0315e-17 
8729.50 2.9599e-17 
8731.00 2.4166e-17 
8732.50 2.3052e-17 
8734.00 2.5538e-17 
8735.50 2.1068e-17 
8737.00 3.3913e-17 
8738.50 3.7758e-17 
8740.00 3.2333e-17 
8741.50 3.8573e-17 
8743.00 3.6301e-17 
8744.50 3.5139e-17 
8746.00 3.5557e-17 
8747.50 3.3339e-17 
8749.00 3.0745e-17 
8750.50 2.8384e-17 
8752.00 2.6236e-17 
8753.50 2.8056e-17 
8755.00 2.6387e-17 
8756.50 2.4506e-17 
8758.00 2.2649e-17 
8759.50 6.0084e-17 
8761.00 5.2157e-17 
8762.50 3.3650e-17 
8764.00 1.5743e-18 
8765.50 1.3396e-17 
8767.00 2.7638e-17 
8768.50 3.5208e-17 
8770.00 1.4819e-17 
8771.50 -3.1715e-17
8773.00 -9.1788e-18
8774.50 2.6984e-17 
8776.00 2.6604e-17 
8777.50 4.0170e-17 
8779.00 5.1574e-17 
8780.50 5.6959e-17 
8782.00 8.3441e-18 
8783.50 3.3329e-18 
8785.00 9.6377e-18 
8786.50 2.2299e-17 
8788.00 2.0843e-17 
8789.50 2.2396e-17 
8791.00 2.5227e-17 
8792.50 2.9319e-17 
8794.00 2.4460e-17 
8795.50 1.6915e-17 
8797.00 1.9239e-17 
8798.50 3.5010e-17 
8800.00 3.6022e-17 
8801.50 2.2898e-17 
8803.00 1.4121e-17 
8804.50 1.5370e-17 
8806.00 3.1634e-17 
8807.50 2.9486e-17 
8809.00 2.6299e-17 
8810.50 2.8261e-17 
8812.00 3.0834e-17 
8813.50 2.2930e-17 
8815.00 1.4745e-17 
8816.50 2.1806e-17 
8818.00 3.5901e-17 
8819.50 3.5336e-17 
8821.00 2.8653e-17 
8822.50 2.7200e-17 
8824.00 2.9665e-17 
8825.50 4.0782e-17 
8827.00 5.9127e-17 
8828.50 1.0213e-16 
8830.00 6.0815e-18 
8831.50 -5.8569e-17
8833.00 -8.7624e-17
8834.50 1.6591e-17 
8836.00 3.9681e-17 
8837.50 4.7381e-17 
8839.00 3.4027e-17 
8840.50 8.0524e-18 
8842.00 2.3834e-17 
8843.50 4.3415e-17 
8845.00 4.4898e-17 
8846.50 2.8363e-17 
8848.00 2.3455e-17 
8849.50 2.4270e-17 
8851.00 4.2682e-17 
8852.50 2.3611e-17 
8854.00 1.7524e-17 
8855.50 2.0094e-17 
8857.00 1.9742e-17 
8858.50 2.0408e-17 
8860.00 2.0271e-17 
8861.50 1.8933e-17 
8863.00 2.3384e-17 
8864.50 2.8192e-17 
8866.00 3.4863e-17 
8867.50 4.7780e-17 
8869.00 2.9640e-17 
8870.50 1.6847e-17 
8872.00 5.2223e-18 
8873.50 -5.6771e-18
8875.00 1.8334e-17 
8876.50 2.6601e-17 
8878.00 2.6776e-17 
8879.50 1.8776e-17 
8881.00 2.2276e-17 
8882.50 3.0390e-17 
8884.00 4.5257e-17 
8885.50 7.3167e-17 
8887.00 7.1965e-17 
8888.50 4.9343e-17 
8890.00 -2.8895e-17
8891.50 -3.0934e-18
8893.00 9.7015e-18 
8894.50 1.9884e-17 
8896.00 3.1389e-17 
8897.50 3.5371e-17 
8899.00 3.1779e-17 
8900.50 2.3762e-17 
8902.00 2.7920e-17 
8903.50 4.7129e-17 
8905.00 5.1167e-17 
8906.50 3.4567e-17 
8908.00 -1.7201e-17
8909.50 -3.2655e-18
8911.00 1.5533e-17 
8912.50 2.9761e-17 
8914.00 2.5589e-17 
8915.50 2.6949e-17 
8917.00 3.0582e-17 
8918.50 3.9168e-17 
8920.00 6.9907e-17 
8921.50 6.1302e-17 
8923.00 1.7948e-17 
8924.50 -5.6429e-17
8926.00 -1.3101e-17
8927.50 1.9194e-17 
8929.00 2.2415e-17 
8930.50 2.8084e-17 
8932.00 3.5464e-17 
8933.50 3.9875e-17 
8935.00 1.9907e-17 
8936.50 2.5273e-17 
8938.00 2.8135e-17 
8939.50 2.9782e-17 
8941.00 2.8423e-17 
8942.50 3.1483e-17 
8944.00 3.4959e-17 
8945.50 3.9821e-17 
8947.00 1.1643e-17 
8948.50 1.1035e-17 
8950.00 1.5405e-17 
8951.50 2.2522e-17 
8953.00 1.8776e-17 
8954.50 2.2442e-17 
8956.00 3.0519e-17 
8957.50 5.7966e-17 
8959.00 8.5233e-17 
8960.50 5.4876e-17 
8962.00 -7.9938e-17
8963.50 -2.4164e-17
8965.00 9.7432e-18 
8966.50 3.3708e-17 
8968.00 2.0188e-17 
8969.50 2.0503e-17 
8971.00 2.1307e-17 
8972.50 2.2480e-17 
8974.00 2.1531e-17 
8975.50 1.8453e-17 
8977.00 1.9963e-17 
8978.50 3.0678e-17 
8980.00 3.4834e-17 
8981.50 3.2127e-17 
8983.00 2.7494e-17 
8984.50 1.8537e-17 
8986.00 1.9661e-17 
8987.50 2.7092e-17 
8989.00 4.0274e-17 
8990.50 3.9418e-17 
8992.00 1.1130e-17 
8993.50 -3.9871e-18
8995.00 1.4665e-17 
8996.50 2.4751e-17 
8998.00 2.8185e-17 
8999.50 2.9991e-17 
9001.00 3.2364e-17 
9002.50 3.4305e-17 
9004.00 3.1329e-17 
9005.50 2.2232e-17 
9007.00 -1.4519e-17
9008.50 1.4707e-17 
9010.00 3.9998e-17 
9011.50 2.2357e-17 
9013.00 3.7795e-17 
9014.50 3.6519e-17 
9016.00 2.7050e-17 
9017.50 2.5460e-17 
9019.00 2.6525e-17 
9020.50 2.8213e-17 
9022.00 3.1619e-17 
9023.50 2.9457e-17 
9025.00 3.0144e-17 
9026.50 3.1397e-17 
9028.00 3.1360e-17 
9029.50 2.8472e-17 
9031.00 2.7419e-17 
9032.50 2.7972e-17 
9034.00 1.6868e-17 
9035.50 1.4699e-17 
9037.00 1.6159e-17 
9038.50 3.1187e-17 
9040.00 2.6616e-17 
9041.50 2.0417e-17 
9043.00 1.2320e-17 
9044.50 2.5202e-17 
9046.00 1.6562e-17 
9047.50 1.5263e-17 
9049.00 3.4272e-17 
9050.50 4.1973e-17 
9052.00 2.9239e-17 
9053.50 9.9469e-18 
9055.00 2.1825e-17 
9056.50 1.6208e-17 
9058.00 1.1267e-17 
9059.50 5.8438e-18 
9061.00 2.3306e-17 
9062.50 2.1274e-17 
9064.00 1.6519e-17 
9065.50 2.3298e-17 
9067.00 2.7540e-17 
9068.50 2.2782e-17 
9070.00 6.9867e-18 
9071.50 2.6675e-17 
9073.00 1.7021e-17 
9074.50 7.3540e-18 
9076.00 1.7936e-17 
9077.50 2.6292e-17 
9079.00 2.7571e-17 
9080.50 2.3829e-17 
9082.00 2.4075e-17 
9083.50 2.7882e-17 
9085.00 2.9891e-17 
9086.50 2.3274e-17 
9088.00 1.7775e-17 
9089.50 1.8906e-17 
9091.00 2.4049e-17 
9092.50 3.5483e-17 
9094.00 2.9563e-17 
9095.50 2.4695e-17 
9097.00 2.4395e-17 
9098.50 1.4963e-17 
9100.00 1.1021e-17 
9101.50 9.0159e-18 
9103.00 3.3453e-17 
9104.50 2.3421e-17 
9106.00 1.6024e-17 
9107.50 1.6011e-17 
9109.00 2.9814e-17 
9110.50 3.4512e-17 
9112.00 3.6098e-17 
9113.50 2.3647e-17 
9115.00 2.7102e-17 
9116.50 2.9009e-17 
9118.00 2.6783e-17 
9119.50 1.9452e-17 
9121.00 1.9184e-17 
9122.50 2.1680e-17 
9124.00 3.0518e-17 
9125.50 2.2679e-17 
9127.00 1.7302e-17 
9128.50 1.7453e-17 
9130.00 2.5823e-17 
9131.50 2.8135e-17 
9133.00 2.8276e-17 
9134.50 1.3862e-17 
9136.00 2.2610e-17 
9137.50 2.7236e-17 
9139.00 1.9701e-17 
9140.50 1.7189e-17 
9142.00 1.9028e-17 
9143.50 2.3254e-17 
9145.00 3.9530e-17 
9146.50 1.6234e-17 
9148.00 2.1186e-18 
9149.50 2.1197e-17 
9151.00 2.9548e-17 
9152.50 3.0827e-17 
9154.00 2.8388e-17 
9155.50 2.3492e-17 
9157.00 2.5481e-17 
9158.50 2.9178e-17 
9160.00 4.0513e-17 
9161.50 2.9835e-17 
9163.00 2.9094e-17 
9164.50 3.5529e-17 
9166.00 6.6198e-18 
9167.50 1.5391e-17 
9169.00 2.6501e-17 
9170.50 2.9967e-17 
9172.00 1.5804e-17 
9173.50 1.5332e-17 
9175.00 2.9305e-17 
9176.50 9.8389e-18 
9178.00 1.7758e-17 
9179.50 2.9277e-17 
9181.00 2.6389e-17 
9182.50 2.1614e-17 
9184.00 2.0635e-17 
9185.50 2.5402e-17 
9187.00 2.5960e-17 
9188.50 2.5625e-17 
9190.00 2.5005e-17 
9191.50 2.4210e-17 
9193.00 2.2094e-17 
9194.50 1.9935e-17 
9196.00 1.6695e-17 
9197.50 2.1440e-17 
9199.00 0
9200.50 0
9202.00 0
9203.50 0
9205.00 0
9206.50 0
9208.00 0
9209.50 0
9211.00 0
9212.50 0
9214.00 0
9215.50 0
9217.00 0
9218.50 0
9220.00 0
9221.50 0
9223.00 0
9224.50 0
9226.00 0
9227.50 0
9229.00 0
9230.50 0
9232.00 0
9233.50 0
9235.00 0
9236.50 0
9238.00 0
9239.50 0
9241.00 0
9242.50 0
9244.00 0
9245.50 0
9247.00 0
9248.50 0
9250.00 0
9251.50 0
9253.00 0
9254.50 0
9256.00 0
9257.50 0
9259.00 0
9260.50 0
9262.00 0
9263.50 0
9265.00 0
9266.50 0
9268.00 0
9269.50 0
9271.00 0
9272.50 0
9274.00 0
9275.50 0
9277.00 0
9278.50 0
9280.00 0
9281.50 0
9283.00 0
9284.50 0
9286.00 0
9287.50 0
9289.00 0
9290.50 0
9292.00 0
9293.50 0
9295.00 0
9296.50 0
9298.00 0
9299.50 0
9301.00 0
9302.50 0
9304.00 0
9305.50 0
9307.00 0
9308.50 0
9310.00 0
9311.50 0
9313.00 0
9314.50 0
9316.00 0
9317.50 0
9319.00 0
9320.50 0
9322.00 0
9323.50 0
9325.00 0
9326.50 0
9328.00 0
9329.50 0
9331.00 0
9332.50 0
9334.00 0
9335.50 0
9337.00 0
9338.50 0
9340.00 0
9341.50 0
9343.00 0
9344.50 0
9346.00 0
9347.50 0
9349.00 0
9350.50 0
9352.00 0
9353.50 0
9355.00 0
9356.50 0
9358.00 0
9359.50 0
9361.00 0
9362.50 0
9364.00 0
9365.50 0
9367.00 0
9368.50 0
9370.00 0
9371.50 0
9373.00 0
9374.50 0
9376.00 0
9377.50 0
9379.00 0
9380.50 0
9382.00 0
9383.50 0
9385.00 0
9386.50 0
9388.00 0
9389.50 0
9391.00 0
9392.50 0
9394.00 0
9395.50 0
9397.00 0
9398.50 0
9400.00 0
9401.50 0
9403.00 0
9404.50 0
9406.00 0
9407.50 0
9409.00 0
9410.50 0
9412.00 0
9413.50 0
9415.00 0
9416.50 0
9418.00 0
9419.50 0
9421.00 0
9422.50 0
9424.00 0
9425.50 0
9427.00 0
9428.50 0
9430.00 0
9431.50 0
9433.00 0
9434.50 0
9436.00 0
9437.50 0
9439.00 0
9440.50 0
9442.00 0
9443.50 0
9445.00 0
9446.50 0
9448.00 0
9449.50 0
9451.00 0
9452.50 0
9454.00 0
9455.50 0
9457.00 0
9458.50 0
9460.00 0
9461.50 0
9463.00 0
9464.50 0
9466.00 0
9467.50 0
9469.00 0
9470.50 0
9472.00 0
9473.50 0
9475.00 0
9476.50 0
9478.00 0
9479.50 0
9481.00 0
9482.50 0
9484.00 0
9485.50 0
9487.00 0
9488.50 0
9490.00 0
9491.50 0
9493.00 0
9494.50 0
9496.00 0
9497.50 0
9499.00 0
9500.50 0
9502.00 0
9503.50 0
9505.00 0
9506.50 0
9508.00 0
9509.50 0
9511.00 0
9512.50 0
9514.00 0
9515.50 0
9517.00 0
9518.50 0
9520.00 0
9521.50 0
9523.00 0
9524.50 0
9526.00 0
9527.50 0
9529.00 0
9530.50 0
9532.00 0
9533.50 0
9535.00 0
9536.50 0
9538.00 0
9539.50 0
9541.00 0
9542.50 0
9544.00 0
9545.50 0
9547.00 0
9548.50 0
9550.00 0
9551.50 0
9553.00 0
9554.50 0
9556.00 0
9557.50 0
9559.00 0
9560.50 0
9562.00 0
9563.50 0
9565.00 0
9566.50 0
9568.00 0
9569.50 0
9571.00 0
9572.50 0
9574.00 0
9575.50 0
9577.00 0
9578.50 0
9580.00 0
9581.50 0
9583.00 0
9584.50 0
9586.00 0
9587.50 0
9589.00 0
9590.50 0
9592.00 0
9593.50 0
9595.00 0
9596.50 0
9598.00 0
9599.50 0
