Wavelength (Angstroms) Flux (erg/s/cm2/A)
# start
3400.00 0
3401.50 0
3403.00 0
3404.50 0
3406.00 0
3407.50 0
3409.00 0
3410.50 0
3412.00 0
3413.50 0
3415.00 0
3416.50 0
3418.00 0
3419.50 0
3421.00 0
3422.50 0
3424.00 0
3425.50 0
3427.00 0
3428.50 0
3430.00 0
3431.50 0
3433.00 0
3434.50 0
3436.00 0
3437.50 0
3439.00 0
3440.50 0
3442.00 0
3443.50 0
3445.00 0
3446.50 0
3448.00 0
3449.50 0
3451.00 0
3452.50 0
3454.00 0
3455.50 0
3457.00 0
3458.50 0
3460.00 0
3461.50 0
3463.00 0
3464.50 0
3466.00 0
3467.50 0
3469.00 0
3470.50 0
3472.00 0
3473.50 0
3475.00 0
3476.50 0
3478.00 0
3479.50 0
3481.00 0
3482.50 0
3484.00 0
3485.50 0
3487.00 0
3488.50 0
3490.00 0
3491.50 0
3493.00 0
3494.50 0
3496.00 0
3497.50 0
3499.00 0
3500.50 0
3502.00 0
3503.50 0
3505.00 0
3506.50 0
3508.00 0
3509.50 0
3511.00 0
3512.50 0
3514.00 0
3515.50 0
3517.00 0
3518.50 0
3520.00 0
3521.50 0
3523.00 0
3524.50 0
3526.00 0
3527.50 0
3529.00 0
3530.50 0
3532.00 0
3533.50 0
3535.00 0
3536.50 0
3538.00 0
3539.50 0
3541.00 0
3542.50 0
3544.00 0
3545.50 0
3547.00 0
3548.50 0
3550.00 0
3551.50 0
3553.00 0
3554.50 0
3556.00 0
3557.50 0
3559.00 0
3560.50 0
3562.00 0
3563.50 0
3565.00 0
3566.50 0
3568.00 0
3569.50 0
3571.00 0
3572.50 0
3574.00 0
3575.50 0
3577.00 0
3578.50 0
3580.00 0
3581.50 0
3583.00 0
3584.50 0
3586.00 0
3587.50 0
3589.00 0
3590.50 0
3592.00 0
3593.50 0
3595.00 0
3596.50 0
3598.00 0
3599.50 0
3601.00 7.4374e-17 
3602.50 1.2217e-16 
3604.00 1.0649e-16 
3605.50 1.1211e-16 
3607.00 1.0618e-16 
3608.50 8.4864e-17 
3610.00 1.1890e-16 
3611.50 1.1097e-16 
3613.00 1.3300e-16 
3614.50 1.4788e-16 
3616.00 6.8963e-17 
3617.50 5.2435e-17 
3619.00 7.4552e-17 
3620.50 1.1463e-16 
3622.00 9.6613e-17 
3623.50 8.1754e-17 
3625.00 3.7322e-17 
3626.50 3.1048e-17 
3628.00 1.9899e-17 
3629.50 1.0338e-16 
3631.00 1.3171e-16 
3632.50 8.5334e-17 
3634.00 1.0928e-16 
3635.50 1.1371e-16 
3637.00 1.1423e-16 
3638.50 8.5410e-17 
3640.00 7.6517e-17 
3641.50 1.0135e-16 
3643.00 1.0984e-16 
3644.50 6.9057e-17 
3646.00 7.7881e-17 
3647.50 9.4464e-17 
3649.00 7.4346e-17 
3650.50 5.7893e-17 
3652.00 4.8958e-17 
3653.50 1.1796e-17 
3655.00 4.5529e-17 
3656.50 6.7541e-17 
3658.00 1.0775e-16 
3659.50 8.0946e-17 
3661.00 6.9995e-17 
3662.50 6.2026e-17 
3664.00 6.9613e-17 
3665.50 8.8906e-17 
3667.00 9.6308e-17 
3668.50 8.6015e-17 
3670.00 7.1741e-17 
3671.50 6.6098e-17 
3673.00 8.7706e-17 
3674.50 9.0992e-17 
3676.00 7.6334e-17 
3677.50 9.4559e-17 
3679.00 5.8698e-17 
3680.50 6.8970e-17 
3682.00 6.7889e-17 
3683.50 4.1403e-17 
3685.00 5.5373e-17 
3686.50 5.8300e-17 
3688.00 8.7743e-17 
3689.50 5.3657e-17 
3691.00 7.2448e-17 
3692.50 6.5144e-17 
3694.00 8.9250e-17 
3695.50 6.5375e-17 
3697.00 1.3856e-17 
3698.50 5.0313e-17 
3700.00 7.3095e-17 
3701.50 7.3001e-17 
3703.00 7.1420e-17 
3704.50 8.3621e-17 
3706.00 6.2964e-17 
3707.50 7.9132e-17 
3709.00 7.7507e-17 
3710.50 6.5321e-17 
3712.00 7.4805e-17 
3713.50 7.9842e-17 
3715.00 8.9532e-17 
3716.50 7.7230e-17 
3718.00 6.3449e-17 
3719.50 7.8619e-17 
3721.00 8.8730e-17 
3722.50 6.6081e-17 
3724.00 6.6569e-17 
3725.50 5.0447e-17 
3727.00 6.2337e-17 
3728.50 4.5457e-17 
3730.00 7.3154e-17 
3731.50 9.3979e-17 
3733.00 7.7980e-17 
3734.50 1.1306e-16 
3736.00 1.0092e-16 
3737.50 8.4058e-17 
3739.00 6.7184e-17 
3740.50 8.4254e-17 
3742.00 8.6499e-17 
3743.50 7.6986e-17 
3745.00 1.0708e-16 
3746.50 8.8264e-17 
3748.00 8.0986e-17 
3749.50 9.0357e-17 
3751.00 1.0412e-16 
3752.50 7.9036e-17 
3754.00 6.6829e-17 
3755.50 8.1341e-17 
3757.00 6.7750e-17 
3758.50 8.8493e-17 
3760.00 8.7415e-17 
3761.50 6.7014e-17 
3763.00 2.4081e-17 
3764.50 4.7433e-17 
3766.00 9.4913e-17 
3767.50 8.2449e-17 
3769.00 9.2753e-17 
3770.50 7.9594e-17 
3772.00 7.8357e-17 
3773.50 5.5393e-17 
3775.00 6.3812e-17 
3776.50 7.8336e-17 
3778.00 6.9243e-17 
3779.50 9.5879e-17 
3781.00 7.8447e-17 
3782.50 7.4053e-17 
3784.00 6.2038e-17 
3785.50 9.7577e-17 
3787.00 7.1126e-17 
3788.50 3.7275e-17 
3790.00 5.6967e-17 
3791.50 8.2345e-17 
3793.00 8.1412e-17 
3794.50 5.6143e-17 
3796.00 6.6005e-17 
3797.50 7.7174e-17 
3799.00 4.8467e-17 
3800.50 7.0790e-17 
3802.00 7.6345e-17 
3803.50 8.3806e-17 
3805.00 8.9084e-17 
3806.50 6.7737e-17 
3808.00 3.9178e-17 
3809.50 1.7384e-17 
3811.00 2.8476e-17 
3812.50 5.2380e-17 
3814.00 7.8005e-17 
3815.50 6.1858e-17 
3817.00 4.8548e-17 
3818.50 4.9757e-17 
3820.00 7.2768e-17 
3821.50 4.8914e-17 
3823.00 3.8330e-17 
3824.50 1.6143e-17 
3826.00 2.3908e-17 
3827.50 6.0488e-17 
3829.00 8.7904e-17 
3830.50 7.6273e-17 
3832.00 7.7197e-17 
3833.50 7.0064e-17 
3835.00 6.1235e-17 
3836.50 6.0935e-17 
3838.00 7.5163e-17 
3839.50 9.2422e-17 
3841.00 7.5644e-17 
3842.50 8.3019e-17 
3844.00 8.3989e-17 
3845.50 9.0860e-17 
3847.00 1.0108e-16 
3848.50 8.7729e-17 
3850.00 7.9336e-17 
3851.50 7.6931e-17 
3853.00 7.1553e-17 
3854.50 6.9683e-17 
3856.00 7.8738e-17 
3857.50 5.0477e-17 
3859.00 5.8420e-17 
3860.50 8.8442e-17 
3862.00 7.9639e-17 
3863.50 6.4758e-17 
3865.00 6.5564e-17 
3866.50 8.5515e-17 
3868.00 8.2944e-17 
3869.50 6.9088e-17 
3871.00 6.6563e-17 
3872.50 8.4203e-17 
3874.00 8.0092e-17 
3875.50 8.3340e-17 
3877.00 9.1236e-17 
3878.50 9.5033e-17 
3880.00 8.3294e-17 
3881.50 7.5246e-17 
3883.00 7.7963e-17 
3884.50 9.0153e-17 
3886.00 8.9512e-17 
3887.50 8.1317e-17 
3889.00 7.2312e-17 
3890.50 8.3450e-17 
3892.00 8.7072e-17 
3893.50 8.9752e-17 
3895.00 8.8851e-17 
3896.50 8.6971e-17 
3898.00 7.3261e-17 
3899.50 7.3401e-17 
3901.00 7.9442e-17 
3902.50 8.6018e-17 
3904.00 7.6772e-17 
3905.50 8.9505e-17 
3907.00 9.6040e-17 
3908.50 8.5081e-17 
3910.00 5.9491e-17 
3911.50 7.5703e-17 
3913.00 1.0922e-16 
3914.50 9.0914e-17 
3916.00 9.1308e-17 
3917.50 8.9842e-17 
3919.00 9.4717e-17 
3920.50 9.9725e-17 
3922.00 9.5519e-17 
3923.50 7.8511e-17 
3925.00 7.3312e-17 
3926.50 1.0313e-16 
3928.00 9.6695e-17 
3929.50 8.8659e-17 
3931.00 8.3372e-17 
3932.50 8.4580e-17 
3934.00 7.8060e-17 
3935.50 8.7509e-17 
3937.00 1.0551e-16 
3938.50 7.6031e-17 
3940.00 6.4871e-17 
3941.50 7.9281e-17 
3943.00 8.9974e-17 
3944.50 8.0986e-17 
3946.00 8.1108e-17 
3947.50 9.0367e-17 
3949.00 8.1439e-17 
3950.50 9.9976e-17 
3952.00 8.0990e-17 
3953.50 7.8933e-17 
3955.00 7.2134e-17 
3956.50 8.3015e-17 
3958.00 8.2234e-17 
3959.50 1.0967e-16 
3961.00 1.2052e-16 
3962.50 1.1686e-16 
3964.00 1.0810e-16 
3965.50 1.1745e-16 
3967.00 1.1705e-16 
3968.50 1.0983e-16 
3970.00 1.1873e-16 
3971.50 1.1844e-16 
3973.00 1.1783e-16 
3974.50 1.0391e-16 
3976.00 6.6208e-17 
3977.50 8.3313e-17 
3979.00 1.1149e-16 
3980.50 1.3414e-16 
3982.00 1.3632e-16 
3983.50 1.4181e-16 
3985.00 1.4005e-16 
3986.50 1.5298e-16 
3988.00 1.3267e-16 
3989.50 1.4907e-16 
3991.00 1.5936e-16 
3992.50 1.3596e-16 
3994.00 1.4034e-16 
3995.50 1.5689e-16 
3997.00 1.6226e-16 
3998.50 1.6155e-16 
4000.00 1.5524e-16 
4001.50 1.3081e-16 
4003.00 1.4386e-16 
4004.50 1.9609e-16 
4006.00 2.0162e-16 
4007.50 1.8898e-16 
4009.00 1.8238e-16 
4010.50 1.7661e-16 
4012.00 1.7129e-16 
4013.50 1.5011e-16 
4015.00 1.5081e-16 
4016.50 1.5781e-16 
4018.00 6.8841e-17 
4019.50 9.2062e-17 
4021.00 1.4659e-16 
4022.50 1.9777e-16 
4024.00 2.4091e-16 
4025.50 2.4093e-16 
4027.00 2.5038e-16 
4028.50 2.8132e-16 
4030.00 2.5772e-16 
4031.50 2.0297e-16 
4033.00 2.8479e-16 
4034.50 3.2502e-16 
4036.00 3.5419e-16 
4037.50 3.4160e-16 
4039.00 2.8510e-16 
4040.50 1.1584e-16 
4042.00 1.3130e-16 
4043.50 3.4103e-16 
4045.00 4.5881e-16 
4046.50 4.8074e-16 
4048.00 5.0299e-16 
4049.50 5.5611e-16 
4051.00 5.7015e-16 
4052.50 5.8833e-16 
4054.00 6.3798e-16 
4055.50 6.3913e-16 
4057.00 6.9311e-16 
4058.50 7.1442e-16 
4060.00 7.3680e-16 
4061.50 7.4758e-16 
4063.00 7.4700e-16 
4064.50 7.0887e-16 
4066.00 6.6940e-16 
4067.50 6.3837e-16 
4069.00 5.9980e-16 
4070.50 5.9467e-16 
4072.00 5.4890e-16 
4073.50 5.5081e-16 
4075.00 5.2743e-16 
4076.50 5.0539e-16 
4078.00 4.7624e-16 
4079.50 4.6789e-16 
4081.00 4.5483e-16 
4082.50 4.2660e-16 
4084.00 4.1562e-16 
4085.50 3.9903e-16 
4087.00 3.8703e-16 
4088.50 3.8086e-16 
4090.00 3.5012e-16 
4091.50 3.3126e-16 
4093.00 3.0823e-16 
4094.50 3.0150e-16 
4096.00 2.9934e-16 
4097.50 2.8886e-16 
4099.00 2.6374e-16 
4100.50 2.5933e-16 
4102.00 2.6035e-16 
4103.50 2.4333e-16 
4105.00 2.4338e-16 
4106.50 2.2451e-16 
4108.00 2.2961e-16 
4109.50 2.2738e-16 
4111.00 2.1865e-16 
4112.50 2.1542e-16 
4114.00 2.0359e-16 
4115.50 2.0609e-16 
4117.00 2.0499e-16 
4118.50 2.0717e-16 
4120.00 1.9787e-16 
4121.50 1.8783e-16 
4123.00 2.0260e-16 
4124.50 1.9389e-16 
4126.00 1.8669e-16 
4127.50 1.7757e-16 
4129.00 1.8982e-16 
4130.50 1.8876e-16 
4132.00 1.9009e-16 
4133.50 1.8721e-16 
4135.00 1.8797e-16 
4136.50 1.7804e-16 
4138.00 1.8107e-16 
4139.50 1.7945e-16 
4141.00 1.8276e-16 
4142.50 1.9133e-16 
4144.00 1.8073e-16 
4145.50 1.7446e-16 
4147.00 1.8120e-16 
4148.50 1.8361e-16 
4150.00 1.7462e-16 
4151.50 1.4650e-16 
4153.00 1.3720e-16 
4154.50 1.5070e-16 
4156.00 1.6210e-16 
4157.50 1.5180e-16 
4159.00 1.4512e-16 
4160.50 1.4528e-16 
4162.00 1.5954e-16 
4163.50 1.6052e-16 
4165.00 1.5096e-16 
4166.50 1.6720e-16 
4168.00 1.5409e-16 
4169.50 1.5076e-16 
4171.00 1.4726e-16 
4172.50 1.4589e-16 
4174.00 1.3695e-16 
4175.50 1.4451e-16 
4177.00 1.3606e-16 
4178.50 1.3709e-16 
4180.00 1.3061e-16 
4181.50 1.3345e-16 
4183.00 1.3803e-16 
4184.50 1.2912e-16 
4186.00 1.2071e-16 
4187.50 1.0406e-16 
4189.00 1.1919e-16 
4190.50 1.3012e-16 
4192.00 1.1690e-16 
4193.50 1.1966e-16 
4195.00 1.2402e-16 
4196.50 1.3099e-16 
4198.00 1.2870e-16 
4199.50 1.2342e-16 
4201.00 1.1399e-16 
4202.50 1.1903e-16 
4204.00 1.1653e-16 
4205.50 1.1216e-16 
4207.00 1.1738e-16 
4208.50 1.2320e-16 
4210.00 1.1834e-16 
4211.50 1.1734e-16 
4213.00 1.0488e-16 
4214.50 1.0511e-16 
4216.00 1.0808e-16 
4217.50 1.1755e-16 
4219.00 1.1097e-16 
4220.50 1.1875e-16 
4222.00 1.1226e-16 
4223.50 1.0431e-16 
4225.00 1.1088e-16 
4226.50 1.0669e-16 
4228.00 1.0909e-16 
4229.50 9.9702e-17 
4231.00 9.8454e-17 
4232.50 1.0677e-16 
4234.00 1.0133e-16 
4235.50 9.2536e-17 
4237.00 9.9623e-17 
4238.50 9.5142e-17 
4240.00 9.7534e-17 
4241.50 9.5292e-17 
4243.00 1.0166e-16 
4244.50 9.0597e-17 
4246.00 9.1070e-17 
4247.50 8.4828e-17 
4249.00 8.1014e-17 
4250.50 8.6899e-17 
4252.00 8.5120e-17 
4253.50 8.7894e-17 
4255.00 9.0428e-17 
4256.50 8.5158e-17 
4258.00 9.3455e-17 
4259.50 9.0115e-17 
4261.00 8.3979e-17 
4262.50 8.5397e-17 
4264.00 7.8243e-17 
4265.50 8.1499e-17 
4267.00 8.0405e-17 
4268.50 7.3512e-17 
4270.00 8.1168e-17 
4271.50 7.9873e-17 
4273.00 7.8583e-17 
4274.50 8.1928e-17 
4276.00 8.6553e-17 
4277.50 9.0417e-17 
4279.00 8.5821e-17 
4280.50 7.6901e-17 
4282.00 8.4638e-17 
4283.50 8.4536e-17 
4285.00 8.3065e-17 
4286.50 7.9605e-17 
4288.00 7.5886e-17 
4289.50 7.9132e-17 
4291.00 7.9595e-17 
4292.50 8.8425e-17 
4294.00 8.5335e-17 
4295.50 8.2749e-17 
4297.00 7.0588e-17 
4298.50 8.6118e-17 
4300.00 8.4425e-17 
4301.50 7.9160e-17 
4303.00 8.1615e-17 
4304.50 7.4762e-17 
4306.00 7.7810e-17 
4307.50 7.6601e-17 
4309.00 8.3003e-17 
4310.50 7.6275e-17 
4312.00 8.2693e-17 
4313.50 8.5084e-17 
4315.00 8.2581e-17 
4316.50 9.4843e-17 
4318.00 9.3564e-17 
4319.50 8.6681e-17 
4321.00 8.0610e-17 
4322.50 7.9612e-17 
4324.00 8.4720e-17 
4325.50 8.6760e-17 
4327.00 7.9979e-17 
4328.50 9.0361e-17 
4330.00 9.3441e-17 
4331.50 8.9597e-17 
4333.00 8.1895e-17 
4334.50 8.9930e-17 
4336.00 9.6326e-17 
4337.50 9.7818e-17 
4339.00 9.3537e-17 
4340.50 9.2393e-17 
4342.00 9.4026e-17 
4343.50 1.0449e-16 
4345.00 1.0258e-16 
4346.50 1.0262e-16 
4348.00 1.0557e-16 
4349.50 9.6646e-17 
4351.00 9.9085e-17 
4352.50 9.8400e-17 
4354.00 1.0551e-16 
4355.50 1.0055e-16 
4357.00 9.9636e-17 
4358.50 9.5638e-17 
4360.00 1.0094e-16 
4361.50 9.9980e-17 
4363.00 9.3559e-17 
4364.50 5.6812e-17 
4366.00 5.2843e-17 
4367.50 8.8488e-17 
4369.00 1.0135e-16 
4370.50 9.4304e-17 
4372.00 7.1002e-17 
4373.50 5.8278e-17 
4375.00 8.8588e-17 
4376.50 9.9032e-17 
4378.00 9.9501e-17 
4379.50 9.3215e-17 
4381.00 9.0279e-17 
4382.50 8.0701e-17 
4384.00 8.0348e-17 
4385.50 9.1812e-17 
4387.00 8.4262e-17 
4388.50 8.5243e-17 
4390.00 7.4186e-17 
4391.50 8.3063e-17 
4393.00 8.2466e-17 
4394.50 8.2228e-17 
4396.00 7.6178e-17 
4397.50 7.4379e-17 
4399.00 7.6717e-17 
4400.50 7.4499e-17 
4402.00 7.3855e-17 
4403.50 7.5058e-17 
4405.00 6.6150e-17 
4406.50 7.1233e-17 
4408.00 7.0877e-17 
4409.50 7.1681e-17 
4411.00 6.6997e-17 
4412.50 6.6934e-17 
4414.00 6.2367e-17 
4415.50 6.9267e-17 
4417.00 6.9513e-17 
4418.50 7.6878e-17 
4420.00 7.8881e-17 
4421.50 7.1231e-17 
4423.00 6.7052e-17 
4424.50 6.9301e-17 
4426.00 6.3977e-17 
4427.50 6.2029e-17 
4429.00 6.7189e-17 
4430.50 6.5220e-17 
4432.00 7.3815e-17 
4433.50 7.1743e-17 
4435.00 6.8739e-17 
4436.50 7.1198e-17 
4438.00 6.9482e-17 
4439.50 6.8937e-17 
4441.00 7.1003e-17 
4442.50 7.6405e-17 
4444.00 7.2309e-17 
4445.50 7.1690e-17 
4447.00 7.6326e-17 
4448.50 6.9262e-17 
4450.00 7.0547e-17 
4451.50 7.0062e-17 
4453.00 7.4591e-17 
4454.50 6.9836e-17 
4456.00 7.7499e-17 
4457.50 8.2610e-17 
4459.00 7.7118e-17 
4460.50 7.4903e-17 
4462.00 7.4642e-17 
4463.50 7.0012e-17 
4465.00 7.8815e-17 
4466.50 7.0412e-17 
4468.00 7.8737e-17 
4469.50 7.4740e-17 
4471.00 7.8163e-17 
4472.50 7.5391e-17 
4474.00 7.4456e-17 
4475.50 6.5265e-17 
4477.00 7.0966e-17 
4478.50 7.3824e-17 
4480.00 6.8648e-17 
4481.50 6.1223e-17 
4483.00 6.9171e-17 
4484.50 6.6309e-17 
4486.00 6.8795e-17 
4487.50 6.1509e-17 
4489.00 5.7753e-17 
4490.50 5.6653e-17 
4492.00 6.8690e-17 
4493.50 6.3521e-17 
4495.00 6.4962e-17 
4496.50 5.9751e-17 
4498.00 7.0127e-17 
4499.50 7.0079e-17 
4501.00 6.9937e-17 
4502.50 6.2716e-17 
4504.00 6.1509e-17 
4505.50 5.5506e-17 
4507.00 6.2889e-17 
4508.50 6.2650e-17 
4510.00 5.9959e-17 
4511.50 6.2211e-17 
4513.00 6.8994e-17 
4514.50 6.5102e-17 
4516.00 6.3671e-17 
4517.50 6.5601e-17 
4519.00 6.6564e-17 
4520.50 6.6494e-17 
4522.00 6.6611e-17 
4523.50 6.2654e-17 
4525.00 6.4943e-17 
4526.50 6.4111e-17 
4528.00 6.5217e-17 
4529.50 7.6883e-17 
4531.00 7.2413e-17 
4532.50 7.2622e-17 
4534.00 6.3703e-17 
4535.50 6.1666e-17 
4537.00 7.5569e-17 
4538.50 7.0157e-17 
4540.00 6.6867e-17 
4541.50 6.7764e-17 
4543.00 6.5484e-17 
4544.50 7.3990e-17 
4546.00 7.1465e-17 
4547.50 7.1487e-17 
4549.00 7.2742e-17 
4550.50 6.8561e-17 
4552.00 6.9765e-17 
4553.50 6.9110e-17 
4555.00 6.8747e-17 
4556.50 6.7795e-17 
4558.00 6.6151e-17 
4559.50 7.0500e-17 
4561.00 6.7536e-17 
4562.50 7.3330e-17 
4564.00 6.7919e-17 
4565.50 7.3512e-17 
4567.00 5.9268e-17 
4568.50 6.2893e-17 
4570.00 7.0011e-17 
4571.50 6.4921e-17 
4573.00 6.3705e-17 
4574.50 6.9432e-17 
4576.00 7.6008e-17 
4577.50 6.8319e-17 
4579.00 6.4419e-17 
4580.50 7.3939e-17 
4582.00 7.5283e-17 
4583.50 6.9144e-17 
4585.00 7.0530e-17 
4586.50 6.3769e-17 
4588.00 6.9235e-17 
4589.50 6.3547e-17 
4591.00 6.3159e-17 
4592.50 6.2433e-17 
4594.00 6.7929e-17 
4595.50 6.7534e-17 
4597.00 6.3580e-17 
4598.50 6.1253e-17 
4600.00 6.7469e-17 
4601.50 6.8993e-17 
4603.00 6.9072e-17 
4604.50 6.7227e-17 
4606.00 6.4766e-17 
4607.50 7.0227e-17 
4609.00 6.4933e-17 
4610.50 6.9704e-17 
4612.00 6.9626e-17 
4613.50 6.6026e-17 
4615.00 6.9216e-17 
4616.50 6.4814e-17 
4618.00 7.0050e-17 
4619.50 6.7059e-17 
4621.00 6.2789e-17 
4622.50 6.4688e-17 
4624.00 7.0988e-17 
4625.50 7.3449e-17 
4627.00 7.0202e-17 
4628.50 7.6742e-17 
4630.00 6.3676e-17 
4631.50 6.6389e-17 
4633.00 6.8536e-17 
4634.50 8.0120e-17 
4636.00 7.1468e-17 
4637.50 7.5389e-17 
4639.00 7.6687e-17 
4640.50 8.1394e-17 
4642.00 7.7988e-17 
4643.50 8.0302e-17 
4645.00 7.8227e-17 
4646.50 8.2400e-17 
4648.00 8.0637e-17 
4649.50 7.3873e-17 
4651.00 6.5335e-17 
4652.50 5.7033e-17 
4654.00 7.0868e-17 
4655.50 8.3926e-17 
4657.00 8.3302e-17 
4658.50 7.3421e-17 
4660.00 6.2781e-17 
4661.50 7.1612e-17 
4663.00 8.3832e-17 
4664.50 8.9928e-17 
4666.00 9.1767e-17 
4667.50 1.0019e-16 
4669.00 8.6234e-17 
4670.50 8.8321e-17 
4672.00 9.3733e-17 
4673.50 8.8945e-17 
4675.00 9.2960e-17 
4676.50 9.0834e-17 
4678.00 9.1261e-17 
4679.50 9.2603e-17 
4681.00 9.1776e-17 
4682.50 9.5882e-17 
4684.00 9.2774e-17 
4685.50 9.2547e-17 
4687.00 9.0514e-17 
4688.50 9.4683e-17 
4690.00 9.4079e-17 
4691.50 9.8871e-17 
4693.00 9.3556e-17 
4694.50 8.4320e-17 
4696.00 9.1731e-17 
4697.50 9.0199e-17 
4699.00 8.3561e-17 
4700.50 8.8356e-17 
4702.00 7.6702e-17 
4703.50 7.8926e-17 
4705.00 8.2888e-17 
4706.50 7.2479e-17 
4708.00 7.5873e-17 
4709.50 8.0192e-17 
4711.00 7.8765e-17 
4712.50 7.5602e-17 
4714.00 6.8415e-17 
4715.50 8.2564e-17 
4717.00 7.7104e-17 
4718.50 6.9188e-17 
4720.00 7.4766e-17 
4721.50 7.2163e-17 
4723.00 7.1394e-17 
4724.50 7.1084e-17 
4726.00 7.7634e-17 
4727.50 6.2189e-17 
4729.00 6.1854e-17 
4730.50 6.6091e-17 
4732.00 6.5916e-17 
4733.50 6.5729e-17 
4735.00 6.7860e-17 
4736.50 6.3261e-17 
4738.00 5.8766e-17 
4739.50 6.2951e-17 
4741.00 7.1255e-17 
4742.50 7.0508e-17 
4744.00 6.5894e-17 
4745.50 6.2933e-17 
4747.00 6.7404e-17 
4748.50 6.9646e-17 
4750.00 6.3429e-17 
4751.50 6.7230e-17 
4753.00 6.4240e-17 
4754.50 6.8323e-17 
4756.00 6.7814e-17 
4757.50 6.7025e-17 
4759.00 6.4633e-17 
4760.50 6.0315e-17 
4762.00 6.7626e-17 
4763.50 6.9062e-17 
4765.00 6.2384e-17 
4766.50 6.4795e-17 
4768.00 6.7168e-17 
4769.50 5.9588e-17 
4771.00 6.8520e-17 
4772.50 6.1067e-17 
4774.00 6.3681e-17 
4775.50 6.7571e-17 
4777.00 6.2169e-17 
4778.50 6.3958e-17 
4780.00 5.7834e-17 
4781.50 5.8442e-17 
4783.00 6.2134e-17 
4784.50 6.5636e-17 
4786.00 6.0781e-17 
4787.50 6.6011e-17 
4789.00 6.0582e-17 
4790.50 5.7929e-17 
4792.00 5.9948e-17 
4793.50 6.7049e-17 
4795.00 6.5734e-17 
4796.50 6.0497e-17 
4798.00 6.0068e-17 
4799.50 5.6874e-17 
4801.00 5.6603e-17 
4802.50 5.3293e-17 
4804.00 5.9473e-17 
4805.50 5.7635e-17 
4807.00 6.0087e-17 
4808.50 6.2657e-17 
4810.00 5.9225e-17 
4811.50 6.3410e-17 
4813.00 5.5874e-17 
4814.50 6.0848e-17 
4816.00 5.8357e-17 
4817.50 5.5910e-17 
4819.00 5.9160e-17 
4820.50 5.3695e-17 
4822.00 5.3551e-17 
4823.50 5.4380e-17 
4825.00 5.6408e-17 
4826.50 5.8302e-17 
4828.00 6.1601e-17 
4829.50 6.5406e-17 
4831.00 6.4503e-17 
4832.50 5.4056e-17 
4834.00 5.4581e-17 
4835.50 5.6085e-17 
4837.00 5.8045e-17 
4838.50 6.2192e-17 
4840.00 5.4995e-17 
4841.50 5.0093e-17 
4843.00 6.0903e-17 
4844.50 5.8429e-17 
4846.00 4.9543e-17 
4847.50 5.9418e-17 
4849.00 5.5254e-17 
4850.50 5.6961e-17 
4852.00 5.8927e-17 
4853.50 5.8765e-17 
4855.00 6.0721e-17 
4856.50 5.3316e-17 
4858.00 6.2518e-17 
4859.50 6.1256e-17 
4861.00 5.9178e-17 
4862.50 5.6793e-17 
4864.00 5.8151e-17 
4865.50 6.0723e-17 
4867.00 5.4242e-17 
4868.50 4.7357e-17 
4870.00 4.8862e-17 
4871.50 5.8400e-17 
4873.00 6.1412e-17 
4874.50 5.4246e-17 
4876.00 5.4043e-17 
4877.50 5.5559e-17 
4879.00 4.7797e-17 
4880.50 5.8148e-17 
4882.00 5.4353e-17 
4883.50 5.5620e-17 
4885.00 5.2034e-17 
4886.50 5.1125e-17 
4888.00 5.6998e-17 
4889.50 5.5810e-17 
4891.00 6.0346e-17 
4892.50 5.8441e-17 
4894.00 5.7282e-17 
4895.50 6.0142e-17 
4897.00 6.5006e-17 
4898.50 6.0830e-17 
4900.00 5.1928e-17 
4901.50 6.3418e-17 
4903.00 5.6479e-17 
4904.50 5.7499e-17 
4906.00 5.8130e-17 
4907.50 5.7495e-17 
4909.00 5.7775e-17 
4910.50 5.5966e-17 
4912.00 5.2233e-17 
4913.50 5.8444e-17 
4915.00 5.8668e-17 
4916.50 5.9473e-17 
4918.00 5.8848e-17 
4919.50 6.0173e-17 
4921.00 5.7721e-17 
4922.50 5.9360e-17 
4924.00 5.6465e-17 
4925.50 5.6569e-17 
4927.00 5.7624e-17 
4928.50 6.5508e-17 
4930.00 5.7859e-17 
4931.50 5.5395e-17 
4933.00 5.4946e-17 
4934.50 5.7697e-17 
4936.00 5.9430e-17 
4937.50 5.5206e-17 
4939.00 5.8167e-17 
4940.50 6.2252e-17 
4942.00 6.5662e-17 
4943.50 5.9362e-17 
4945.00 6.0542e-17 
4946.50 5.7248e-17 
4948.00 6.5402e-17 
4949.50 6.0704e-17 
4951.00 5.4000e-17 
4952.50 6.5189e-17 
4954.00 6.2994e-17 
4955.50 6.2245e-17 
4957.00 6.5764e-17 
4958.50 5.5465e-17 
4960.00 6.3023e-17 
4961.50 5.9792e-17 
4963.00 6.1491e-17 
4964.50 6.8871e-17 
4966.00 5.9060e-17 
4967.50 5.7584e-17 
4969.00 6.2270e-17 
4970.50 6.4979e-17 
4972.00 6.6448e-17 
4973.50 6.4990e-17 
4975.00 6.4031e-17 
4976.50 5.9701e-17 
4978.00 5.7932e-17 
4979.50 5.0596e-17 
4981.00 5.8780e-17 
4982.50 6.4590e-17 
4984.00 6.5187e-17 
4985.50 6.1484e-17 
4987.00 6.1894e-17 
4988.50 6.5579e-17 
4990.00 5.8877e-17 
4991.50 5.6619e-17 
4993.00 6.8164e-17 
4994.50 6.6858e-17 
4996.00 6.3230e-17 
4997.50 5.9225e-17 
4999.00 6.6035e-17 
5000.50 6.0743e-17 
5002.00 6.0939e-17 
5003.50 5.6366e-17 
5005.00 6.2352e-17 
5006.50 6.4818e-17 
5008.00 6.2242e-17 
5009.50 5.5577e-17 
5011.00 5.6056e-17 
5012.50 6.0097e-17 
5014.00 6.0510e-17 
5015.50 6.3155e-17 
5017.00 6.4390e-17 
5018.50 7.0012e-17 
5020.00 6.6820e-17 
5021.50 5.6891e-17 
5023.00 5.4212e-17 
5024.50 5.5687e-17 
5026.00 5.5790e-17 
5027.50 5.7181e-17 
5029.00 5.3959e-17 
5030.50 6.0899e-17 
5032.00 5.4867e-17 
5033.50 5.6480e-17 
5035.00 5.5967e-17 
5036.50 6.8506e-17 
5038.00 6.2275e-17 
5039.50 5.6747e-17 
5041.00 5.9438e-17 
5042.50 5.5379e-17 
5044.00 6.1010e-17 
5045.50 5.6914e-17 
5047.00 6.3428e-17 
5048.50 6.1700e-17 
5050.00 5.5907e-17 
5051.50 6.2673e-17 
5053.00 5.8051e-17 
5054.50 5.6471e-17 
5056.00 6.0594e-17 
5057.50 5.4824e-17 
5059.00 6.1860e-17 
5060.50 6.0423e-17 
5062.00 5.5784e-17 
5063.50 5.6165e-17 
5065.00 6.2593e-17 
5066.50 6.4340e-17 
5068.00 5.8176e-17 
5069.50 5.5177e-17 
5071.00 6.3203e-17 
5072.50 5.7604e-17 
5074.00 6.0739e-17 
5075.50 6.2527e-17 
5077.00 5.8387e-17 
5078.50 6.7841e-17 
5080.00 6.7651e-17 
5081.50 7.2868e-17 
5083.00 6.9440e-17 
5084.50 6.9351e-17 
5086.00 7.0112e-17 
5087.50 7.1816e-17 
5089.00 7.2536e-17 
5090.50 7.6183e-17 
5092.00 8.0065e-17 
5093.50 8.4461e-17 
5095.00 7.9925e-17 
5096.50 8.1721e-17 
5098.00 8.9123e-17 
5099.50 8.6776e-17 
5101.00 8.7728e-17 
5102.50 8.7951e-17 
5104.00 8.2104e-17 
5105.50 8.1724e-17 
5107.00 8.8068e-17 
5108.50 8.8629e-17 
5110.00 8.6427e-17 
5111.50 8.9520e-17 
5113.00 9.4649e-17 
5114.50 8.8341e-17 
5116.00 9.0518e-17 
5117.50 9.5884e-17 
5119.00 9.8723e-17 
5120.50 1.0022e-16 
5122.00 1.0461e-16 
5123.50 1.0404e-16 
5125.00 9.9072e-17 
5126.50 1.0637e-16 
5128.00 1.0659e-16 
5129.50 1.0668e-16 
5131.00 1.0920e-16 
5132.50 1.1203e-16 
5134.00 1.0755e-16 
5135.50 1.1239e-16 
5137.00 1.1590e-16 
5138.50 1.2141e-16 
5140.00 1.2567e-16 
5141.50 1.2367e-16 
5143.00 1.2485e-16 
5144.50 1.3198e-16 
5146.00 1.3250e-16 
5147.50 1.3808e-16 
5149.00 1.3829e-16 
5150.50 1.4055e-16 
5152.00 1.4621e-16 
5153.50 1.4433e-16 
5155.00 1.5273e-16 
5156.50 1.6541e-16 
5158.00 1.6655e-16 
5159.50 1.7561e-16 
5161.00 1.8229e-16 
5162.50 1.8665e-16 
5164.00 1.8588e-16 
5165.50 1.8893e-16 
5167.00 2.0008e-16 
5168.50 2.0584e-16 
5170.00 2.0632e-16 
5171.50 2.0794e-16 
5173.00 2.1207e-16 
5174.50 2.0690e-16 
5176.00 2.0952e-16 
5177.50 2.0413e-16 
5179.00 2.1917e-16 
5180.50 2.1431e-16 
5182.00 2.1115e-16 
5183.50 1.9223e-16 
5185.00 1.9959e-16 
5186.50 1.9814e-16 
5188.00 1.9377e-16 
5189.50 1.8654e-16 
5191.00 1.8599e-16 
5192.50 1.8367e-16 
5194.00 1.7355e-16 
5195.50 1.6947e-16 
5197.00 1.6370e-16 
5198.50 1.6402e-16 
5200.00 1.6542e-16 
5201.50 1.5674e-16 
5203.00 1.5449e-16 
5204.50 1.5463e-16 
5206.00 1.3980e-16 
5207.50 1.4293e-16 
5209.00 1.4123e-16 
5210.50 1.3934e-16 
5212.00 1.3136e-16 
5213.50 1.3370e-16 
5215.00 1.2399e-16 
5216.50 1.2218e-16 
5218.00 1.2889e-16 
5219.50 1.2318e-16 
5221.00 1.1751e-16 
5222.50 1.1171e-16 
5224.00 1.1127e-16 
5225.50 1.1372e-16 
5227.00 1.0605e-16 
5228.50 1.0951e-16 
5230.00 1.1174e-16 
5231.50 1.0209e-16 
5233.00 1.0521e-16 
5234.50 1.0069e-16 
5236.00 9.8509e-17 
5237.50 9.7429e-17 
5239.00 9.7107e-17 
5240.50 9.8497e-17 
5242.00 8.6964e-17 
5243.50 9.0136e-17 
5245.00 9.5736e-17 
5246.50 9.3655e-17 
5248.00 8.1717e-17 
5249.50 8.8448e-17 
5251.00 8.4079e-17 
5252.50 8.4311e-17 
5254.00 7.8446e-17 
5255.50 8.1519e-17 
5257.00 8.1207e-17 
5258.50 8.2617e-17 
5260.00 8.0120e-17 
5261.50 7.5929e-17 
5263.00 7.3868e-17 
5264.50 8.1284e-17 
5266.00 8.2228e-17 
5267.50 8.0676e-17 
5269.00 7.6903e-17 
5270.50 7.3308e-17 
5272.00 7.7251e-17 
5273.50 7.3896e-17 
5275.00 7.6429e-17 
5276.50 7.8427e-17 
5278.00 7.0426e-17 
5279.50 7.2543e-17 
5281.00 7.1373e-17 
5282.50 6.6913e-17 
5284.00 6.5291e-17 
5285.50 4.9150e-17 
5287.00 4.2566e-17 
5288.50 6.1651e-17 
5290.00 6.9518e-17 
5291.50 7.3444e-17 
5293.00 6.7938e-17 
5294.50 6.8251e-17 
5296.00 7.0497e-17 
5297.50 6.9543e-17 
5299.00 4.8870e-17 
5300.50 4.8292e-17 
5302.00 5.8525e-17 
5303.50 6.3350e-17 
5305.00 6.6327e-17 
5306.50 6.6384e-17 
5308.00 7.0978e-17 
5309.50 6.5157e-17 
5311.00 6.2260e-17 
5312.50 6.9576e-17 
5314.00 6.5688e-17 
5315.50 6.5007e-17 
5317.00 6.5444e-17 
5318.50 6.4203e-17 
5320.00 6.2718e-17 
5321.50 6.4626e-17 
5323.00 6.9057e-17 
5324.50 6.2841e-17 
5326.00 7.0922e-17 
5327.50 7.2021e-17 
5329.00 6.2854e-17 
5330.50 6.1462e-17 
5332.00 6.4038e-17 
5333.50 6.6354e-17 
5335.00 6.1619e-17 
5336.50 6.3219e-17 
5338.00 6.3191e-17 
5339.50 5.6604e-17 
5341.00 5.9966e-17 
5342.50 6.4252e-17 
5344.00 6.4727e-17 
5345.50 5.9883e-17 
5347.00 6.1103e-17 
5348.50 6.7965e-17 
5350.00 6.3652e-17 
5351.50 6.5207e-17 
5353.00 6.4897e-17 
5354.50 5.6860e-17 
5356.00 5.9735e-17 
5357.50 6.7337e-17 
5359.00 6.4394e-17 
5360.50 6.2146e-17 
5362.00 6.4800e-17 
5363.50 6.1641e-17 
5365.00 6.1562e-17 
5366.50 6.4545e-17 
5368.00 6.8186e-17 
5369.50 6.8265e-17 
5371.00 6.2201e-17 
5372.50 6.3526e-17 
5374.00 5.3897e-17 
5375.50 6.0614e-17 
5377.00 6.4445e-17 
5378.50 5.8775e-17 
5380.00 5.8129e-17 
5381.50 6.7719e-17 
5383.00 6.2114e-17 
5384.50 6.4493e-17 
5386.00 6.4423e-17 
5387.50 5.9178e-17 
5389.00 6.1154e-17 
5390.50 5.7590e-17 
5392.00 5.8622e-17 
5393.50 6.0773e-17 
5395.00 6.0187e-17 
5396.50 6.2199e-17 
5398.00 5.9006e-17 
5399.50 5.7197e-17 
5401.00 6.2796e-17 
5402.50 5.7197e-17 
5404.00 6.0363e-17 
5405.50 5.4057e-17 
5407.00 5.6702e-17 
5408.50 6.2103e-17 
5410.00 6.1090e-17 
5411.50 6.1779e-17 
5413.00 5.4885e-17 
5414.50 5.6243e-17 
5416.00 5.9685e-17 
5417.50 5.7374e-17 
5419.00 6.4089e-17 
5420.50 6.3249e-17 
5422.00 6.2682e-17 
5423.50 5.8134e-17 
5425.00 5.2292e-17 
5426.50 6.4456e-17 
5428.00 6.2166e-17 
5429.50 6.2394e-17 
5431.00 6.2568e-17 
5432.50 6.2426e-17 
5434.00 6.3660e-17 
5435.50 6.3719e-17 
5437.00 6.0839e-17 
5438.50 6.3558e-17 
5440.00 5.7800e-17 
5441.50 6.5709e-17 
5443.00 6.5247e-17 
5444.50 5.7923e-17 
5446.00 6.0216e-17 
5447.50 7.3981e-17 
5449.00 6.6950e-17 
5450.50 6.2668e-17 
5452.00 6.4622e-17 
5453.50 6.6148e-17 
5455.00 6.8652e-17 
5456.50 6.4321e-17 
5458.00 6.7439e-17 
5459.50 6.7586e-17 
5461.00 7.1585e-17 
5462.50 6.8097e-17 
5464.00 6.6389e-17 
5465.50 6.3216e-17 
5467.00 7.0218e-17 
5468.50 7.5480e-17 
5470.00 7.3068e-17 
5471.50 6.8227e-17 
5473.00 6.8005e-17 
5474.50 6.9860e-17 
5476.00 6.7675e-17 
5477.50 7.2180e-17 
5479.00 6.5832e-17 
5480.50 7.1509e-17 
5482.00 7.1264e-17 
5483.50 6.8751e-17 
5485.00 6.8619e-17 
5486.50 6.5818e-17 
5488.00 6.2485e-17 
5489.50 5.8851e-17 
5491.00 6.5589e-17 
5492.50 6.3303e-17 
5494.00 6.3024e-17 
5495.50 5.4566e-17 
5497.00 6.4069e-17 
5498.50 7.0297e-17 
5500.00 6.7874e-17 
5501.50 6.5021e-17 
5503.00 6.9214e-17 
5504.50 6.2955e-17 
5506.00 6.0293e-17 
5507.50 6.8162e-17 
5509.00 6.9398e-17 
5510.50 7.1162e-17 
5512.00 6.6764e-17 
5513.50 6.9053e-17 
5515.00 6.7964e-17 
5516.50 6.9131e-17 
5518.00 6.7143e-17 
5519.50 6.4059e-17 
5521.00 6.2924e-17 
5522.50 5.8361e-17 
5524.00 6.5496e-17 
5525.50 6.8047e-17 
5527.00 6.8575e-17 
5528.50 6.5269e-17 
5530.00 6.6672e-17 
5531.50 6.7783e-17 
5533.00 6.3509e-17 
5534.50 6.4831e-17 
5536.00 6.7812e-17 
5537.50 6.4511e-17 
5539.00 6.3352e-17 
5540.50 6.9418e-17 
5542.00 7.1001e-17 
5543.50 7.0595e-17 
5545.00 6.7444e-17 
5546.50 7.1418e-17 
5548.00 6.6330e-17 
5549.50 6.8841e-17 
5551.00 6.9568e-17 
5552.50 6.9957e-17 
5554.00 6.6441e-17 
5555.50 7.2894e-17 
5557.00 7.0008e-17 
5558.50 6.5138e-17 
5560.00 6.6257e-17 
5561.50 6.6474e-17 
5563.00 6.4967e-17 
5564.50 6.1378e-17 
5566.00 6.3575e-17 
5567.50 6.5268e-17 
5569.00 6.6267e-17 
5570.50 6.8599e-17 
5572.00 6.1735e-17 
5573.50 6.9242e-17 
5575.00 6.5740e-17 
5576.50 7.6725e-17 
5578.00 4.0071e-17 
5579.50 4.3417e-17 
5581.00 7.8641e-17 
5582.50 7.1511e-17 
5584.00 6.6004e-17 
5585.50 7.1510e-17 
5587.00 6.7699e-17 
5588.50 6.0583e-17 
5590.00 6.1263e-17 
5591.50 6.1275e-17 
5593.00 5.7178e-17 
5594.50 5.9175e-17 
5596.00 6.1509e-17 
5597.50 5.9520e-17 
5599.00 5.8323e-17 
5600.50 6.0191e-17 
5602.00 5.6761e-17 
5603.50 5.4859e-17 
5605.00 5.7251e-17 
5606.50 5.5180e-17 
5608.00 5.8479e-17 
5609.50 5.5556e-17 
5611.00 5.0943e-17 
5612.50 5.3301e-17 
5614.00 5.3746e-17 
5615.50 5.1888e-17 
5617.00 4.9627e-17 
5618.50 5.1698e-17 
5620.00 5.5866e-17 
5621.50 5.7373e-17 
5623.00 5.9378e-17 
5624.50 5.8416e-17 
5626.00 4.9464e-17 
5627.50 5.2736e-17 
5629.00 5.3869e-17 
5630.50 5.4880e-17 
5632.00 5.6979e-17 
5633.50 5.1373e-17 
5635.00 5.4582e-17 
5636.50 5.5796e-17 
5638.00 4.7694e-17 
5639.50 4.8325e-17 
5641.00 5.1681e-17 
5642.50 5.4490e-17 
5644.00 5.6107e-17 
5645.50 5.1931e-17 
5647.00 5.5315e-17 
5648.50 5.2676e-17 
5650.00 4.9270e-17 
5651.50 4.8589e-17 
5653.00 4.8758e-17 
5654.50 4.8841e-17 
5656.00 5.2716e-17 
5657.50 5.2358e-17 
5659.00 4.7021e-17 
5660.50 4.5397e-17 
5662.00 5.0470e-17 
5663.50 4.8737e-17 
5665.00 4.8882e-17 
5666.50 5.1597e-17 
5668.00 5.1246e-17 
5669.50 4.8058e-17 
5671.00 5.2090e-17 
5672.50 4.9822e-17 
5674.00 4.4233e-17 
5675.50 4.7571e-17 
5677.00 4.4984e-17 
5678.50 4.4230e-17 
5680.00 4.5728e-17 
5681.50 4.9626e-17 
5683.00 4.8621e-17 
5684.50 4.5486e-17 
5686.00 4.4193e-17 
5687.50 4.3416e-17 
5689.00 4.4496e-17 
5690.50 4.1028e-17 
5692.00 4.4830e-17 
5693.50 4.6814e-17 
5695.00 5.1113e-17 
5696.50 5.2440e-17 
5698.00 5.1806e-17 
5699.50 5.3852e-17 
5701.00 5.2320e-17 
5702.50 4.9283e-17 
5704.00 4.8848e-17 
5705.50 4.8879e-17 
5707.00 4.8255e-17 
5708.50 5.1352e-17 
5710.00 5.3335e-17 
5711.50 4.5523e-17 
5713.00 4.7600e-17 
5714.50 5.1577e-17 
5716.00 5.4895e-17 
5717.50 4.9897e-17 
5719.00 5.3421e-17 
5720.50 5.2429e-17 
5722.00 5.1208e-17 
5723.50 4.9220e-17 
5725.00 5.0680e-17 
5726.50 4.9965e-17 
5728.00 4.7429e-17 
5729.50 4.8044e-17 
5731.00 4.9756e-17 
5732.50 5.0289e-17 
5734.00 5.0805e-17 
5735.50 5.0910e-17 
5737.00 5.1453e-17 
5738.50 5.1747e-17 
5740.00 4.9309e-17 
5741.50 5.3474e-17 
5743.00 5.7646e-17 
5744.50 5.1019e-17 
5746.00 5.3874e-17 
5747.50 5.0039e-17 
5749.00 5.0262e-17 
5750.50 5.3925e-17 
5752.00 5.0266e-17 
5753.50 4.9613e-17 
5755.00 4.9619e-17 
5756.50 5.1575e-17 
5758.00 4.8433e-17 
5759.50 4.5394e-17 
5761.00 5.0682e-17 
5762.50 4.9424e-17 
5764.00 4.7246e-17 
5765.50 5.4993e-17 
5767.00 5.2554e-17 
5768.50 5.2032e-17 
5770.00 5.0790e-17 
5771.50 4.8925e-17 
5773.00 4.6801e-17 
5774.50 5.0737e-17 
5776.00 5.4184e-17 
5777.50 5.2959e-17 
5779.00 5.0791e-17 
5780.50 4.6644e-17 
5782.00 4.8410e-17 
5783.50 5.5137e-17 
5785.00 5.0668e-17 
5786.50 4.7914e-17 
5788.00 5.2363e-17 
5789.50 5.1221e-17 
5791.00 4.9655e-17 
5792.50 4.6283e-17 
5794.00 4.9389e-17 
5795.50 5.1393e-17 
5797.00 5.6738e-17 
5798.50 4.8541e-17 
5800.00 5.0791e-17 
5801.50 5.7525e-17 
5803.00 5.9162e-17 
5804.50 5.3863e-17 
5806.00 4.9321e-17 
5807.50 5.2191e-17 
5809.00 5.2101e-17 
5810.50 4.7030e-17 
5812.00 4.7403e-17 
5813.50 5.1436e-17 
5815.00 5.1086e-17 
5816.50 5.0056e-17 
5818.00 5.0478e-17 
5819.50 4.6692e-17 
5821.00 5.8478e-17 
5822.50 5.3923e-17 
5824.00 5.3383e-17 
5825.50 5.5562e-17 
5827.00 5.7617e-17 
5828.50 5.3336e-17 
5830.00 5.5542e-17 
5831.50 5.9861e-17 
5833.00 5.7791e-17 
5834.50 6.0432e-17 
5836.00 6.2369e-17 
5837.50 5.7469e-17 
5839.00 6.2619e-17 
5840.50 5.8598e-17 
5842.00 5.4493e-17 
5843.50 5.6189e-17 
5845.00 5.3624e-17 
5846.50 5.8308e-17 
5848.00 5.9546e-17 
5849.50 5.6054e-17 
5851.00 5.7113e-17 
5852.50 5.8188e-17 
5854.00 5.4799e-17 
5855.50 5.5966e-17 
5857.00 5.6454e-17 
5858.50 5.0999e-17 
5860.00 4.6946e-17 
5861.50 4.9382e-17 
5863.00 5.1770e-17 
5864.50 5.0545e-17 
5866.00 4.8143e-17 
5867.50 5.3179e-17 
5869.00 5.5796e-17 
5870.50 5.4730e-17 
5872.00 5.6886e-17 
5873.50 5.4193e-17 
5875.00 4.7372e-17 
5876.50 5.0827e-17 
5878.00 5.7696e-17 
5879.50 5.1085e-17 
5881.00 4.7014e-17 
5882.50 4.8751e-17 
5884.00 4.7288e-17 
5885.50 5.2983e-17 
5887.00 5.3575e-17 
5888.50 5.2619e-17 
5890.00 5.4142e-17 
5891.50 4.4236e-17 
5893.00 4.0061e-17 
5894.50 4.7623e-17 
5896.00 4.4471e-17 
5897.50 4.8349e-17 
5899.00 5.0396e-17 
5900.50 4.6044e-17 
5902.00 4.6299e-17 
5903.50 5.0252e-17 
5905.00 4.8193e-17 
5906.50 4.7223e-17 
5908.00 4.7034e-17 
5909.50 4.8719e-17 
5911.00 4.9131e-17 
5912.50 4.4092e-17 
5914.00 4.5061e-17 
5915.50 5.1575e-17 
5917.00 5.0365e-17 
5918.50 4.7315e-17 
5920.00 4.5025e-17 
5921.50 4.7392e-17 
5923.00 5.0383e-17 
5924.50 4.9688e-17 
5926.00 4.3463e-17 
5927.50 4.1287e-17 
5929.00 4.7832e-17 
5930.50 5.1829e-17 
5932.00 4.8400e-17 
5933.50 4.5360e-17 
5935.00 4.4190e-17 
5936.50 4.3340e-17 
5938.00 4.1987e-17 
5939.50 3.5251e-17 
5941.00 4.0057e-17 
5942.50 4.4929e-17 
5944.00 4.6644e-17 
5945.50 4.9723e-17 
5947.00 5.0956e-17 
5948.50 5.0436e-17 
5950.00 5.0238e-17 
5951.50 5.0998e-17 
5953.00 5.0543e-17 
5954.50 4.2684e-17 
5956.00 3.7317e-17 
5957.50 4.2873e-17 
5959.00 4.4277e-17 
5960.50 4.5819e-17 
5962.00 5.0809e-17 
5963.50 5.3358e-17 
5965.00 5.4635e-17 
5966.50 5.3288e-17 
5968.00 4.7356e-17 
5969.50 5.0483e-17 
5971.00 5.5214e-17 
5972.50 5.7770e-17 
5974.00 5.2790e-17 
5975.50 4.7650e-17 
5977.00 5.4853e-17 
5978.50 5.4757e-17 
5980.00 4.9090e-17 
5981.50 4.8286e-17 
5983.00 4.9430e-17 
5984.50 5.0418e-17 
5986.00 5.0015e-17 
5987.50 5.0804e-17 
5989.00 4.8895e-17 
5990.50 4.7849e-17 
5992.00 4.6036e-17 
5993.50 4.1006e-17 
5995.00 4.7978e-17 
5996.50 4.8796e-17 
5998.00 4.5756e-17 
5999.50 5.1793e-17 
6001.00 4.3691e-17 
6002.50 4.7341e-17 
6004.00 5.0932e-17 
6005.50 5.0317e-17 
6007.00 4.7805e-17 
6008.50 4.7782e-17 
6010.00 5.0605e-17 
6011.50 5.0225e-17 
6013.00 4.5595e-17 
6014.50 4.2670e-17 
6016.00 4.5320e-17 
6017.50 4.5689e-17 
6019.00 4.2533e-17 
6020.50 4.5924e-17 
6022.00 4.6836e-17 
6023.50 4.5907e-17 
6025.00 4.5125e-17 
6026.50 5.0591e-17 
6028.00 5.0883e-17 
6029.50 4.6073e-17 
6031.00 4.5875e-17 
6032.50 4.4083e-17 
6034.00 4.5084e-17 
6035.50 4.9137e-17 
6037.00 4.7434e-17 
6038.50 4.8717e-17 
6040.00 5.2240e-17 
6041.50 5.1468e-17 
6043.00 4.9387e-17 
6044.50 4.8294e-17 
6046.00 4.7525e-17 
6047.50 4.8134e-17 
6049.00 4.8458e-17 
6050.50 5.0324e-17 
6052.00 4.7416e-17 
6053.50 4.8174e-17 
6055.00 4.7556e-17 
6056.50 4.5940e-17 
6058.00 4.5801e-17 
6059.50 4.2280e-17 
6061.00 4.2410e-17 
6062.50 4.8134e-17 
6064.00 4.7211e-17 
6065.50 4.8786e-17 
6067.00 4.8436e-17 
6068.50 4.8176e-17 
6070.00 4.5553e-17 
6071.50 4.8780e-17 
6073.00 5.3617e-17 
6074.50 4.6452e-17 
6076.00 4.2978e-17 
6077.50 4.2002e-17 
6079.00 4.3319e-17 
6080.50 5.2041e-17 
6082.00 4.9398e-17 
6083.50 4.2625e-17 
6085.00 4.4481e-17 
6086.50 4.5737e-17 
6088.00 4.6074e-17 
6089.50 4.4282e-17 
6091.00 4.0828e-17 
6092.50 4.4945e-17 
6094.00 3.7594e-17 
6095.50 4.7313e-17 
6097.00 5.0877e-17 
6098.50 4.4319e-17 
6100.00 4.3480e-17 
6101.50 4.8691e-17 
6103.00 5.0259e-17 
6104.50 4.4937e-17 
6106.00 4.3386e-17 
6107.50 4.2834e-17 
6109.00 4.2955e-17 
6110.50 4.1554e-17 
6112.00 4.1456e-17 
6113.50 3.9165e-17 
6115.00 3.9564e-17 
6116.50 4.9459e-17 
6118.00 4.5238e-17 
6119.50 4.3722e-17 
6121.00 4.1804e-17 
6122.50 4.2171e-17 
6124.00 4.3413e-17 
6125.50 4.4295e-17 
6127.00 4.5070e-17 
6128.50 4.5598e-17 
6130.00 4.6282e-17 
6131.50 4.5365e-17 
6133.00 4.5818e-17 
6134.50 4.7065e-17 
6136.00 4.5185e-17 
6137.50 4.4308e-17 
6139.00 4.7390e-17 
6140.50 4.8123e-17 
6142.00 4.6151e-17 
6143.50 5.1527e-17 
6145.00 4.6740e-17 
6146.50 4.4893e-17 
6148.00 4.4051e-17 
6149.50 4.5763e-17 
6151.00 4.5065e-17 
6152.50 4.5511e-17 
6154.00 4.8605e-17 
6155.50 4.4923e-17 
6157.00 4.2997e-17 
6158.50 4.5463e-17 
6160.00 4.6184e-17 
6161.50 4.8576e-17 
6163.00 4.9991e-17 
6164.50 4.7241e-17 
6166.00 4.5149e-17 
6167.50 4.7053e-17 
6169.00 4.4845e-17 
6170.50 4.4398e-17 
6172.00 5.1335e-17 
6173.50 5.3642e-17 
6175.00 5.0375e-17 
6176.50 4.8916e-17 
6178.00 4.7738e-17 
6179.50 4.6300e-17 
6181.00 4.7836e-17 
6182.50 4.8503e-17 
6184.00 4.7164e-17 
6185.50 4.7592e-17 
6187.00 5.0067e-17 
6188.50 5.2919e-17 
6190.00 5.2669e-17 
6191.50 4.9905e-17 
6193.00 4.9387e-17 
6194.50 5.0156e-17 
6196.00 4.8407e-17 
6197.50 4.6445e-17 
6199.00 4.5531e-17 
6200.50 4.7216e-17 
6202.00 4.6710e-17 
6203.50 4.6613e-17 
6205.00 5.3063e-17 
6206.50 5.0399e-17 
6208.00 4.9020e-17 
6209.50 4.8321e-17 
6211.00 4.8783e-17 
6212.50 5.2730e-17 
6214.00 5.1253e-17 
6215.50 4.6894e-17 
6217.00 4.8806e-17 
6218.50 5.5475e-17 
6220.00 5.7588e-17 
6221.50 5.2268e-17 
6223.00 4.8509e-17 
6224.50 4.8302e-17 
6226.00 4.9826e-17 
6227.50 5.1396e-17 
6229.00 5.1799e-17 
6230.50 5.3123e-17 
6232.00 5.0890e-17 
6233.50 5.3587e-17 
6235.00 5.2477e-17 
6236.50 4.7454e-17 
6238.00 4.5531e-17 
6239.50 4.2197e-17 
6241.00 4.1713e-17 
6242.50 4.1177e-17 
6244.00 4.4157e-17 
6245.50 4.8195e-17 
6247.00 4.6067e-17 
6248.50 4.4486e-17 
6250.00 4.3160e-17 
6251.50 4.2377e-17 
6253.00 4.7634e-17 
6254.50 4.6595e-17 
6256.00 4.6977e-17 
6257.50 4.5148e-17 
6259.00 4.7164e-17 
6260.50 4.6883e-17 
6262.00 4.2038e-17 
6263.50 4.9930e-17 
6265.00 5.0505e-17 
6266.50 4.9212e-17 
6268.00 4.5690e-17 
6269.50 4.3805e-17 
6271.00 4.4774e-17 
6272.50 4.4888e-17 
6274.00 4.6460e-17 
6275.50 4.8431e-17 
6277.00 4.9627e-17 
6278.50 5.0201e-17 
6280.00 4.9175e-17 
6281.50 4.8011e-17 
6283.00 4.8309e-17 
6284.50 5.0680e-17 
6286.00 5.2898e-17 
6287.50 5.2090e-17 
6289.00 5.4805e-17 
6290.50 5.5634e-17 
6292.00 5.5214e-17 
6293.50 4.8320e-17 
6295.00 4.3908e-17 
6296.50 5.3629e-17 
6298.00 4.9877e-17 
6299.50 5.1254e-17 
6301.00 4.8741e-17 
6302.50 5.3581e-17 
6304.00 5.9663e-17 
6305.50 5.8086e-17 
6307.00 6.0859e-17 
6308.50 5.7956e-17 
6310.00 5.6908e-17 
6311.50 6.1028e-17 
6313.00 6.3372e-17 
6314.50 6.3045e-17 
6316.00 6.1884e-17 
6317.50 6.0439e-17 
6319.00 6.1673e-17 
6320.50 5.8354e-17 
6322.00 6.2667e-17 
6323.50 6.5631e-17 
6325.00 6.0508e-17 
6326.50 5.4540e-17 
6328.00 5.3514e-17 
6329.50 6.0123e-17 
6331.00 6.7142e-17 
6332.50 6.9068e-17 
6334.00 6.3831e-17 
6335.50 6.2711e-17 
6337.00 6.5297e-17 
6338.50 6.5421e-17 
6340.00 6.4816e-17 
6341.50 6.7606e-17 
6343.00 6.5698e-17 
6344.50 6.6480e-17 
6346.00 6.9252e-17 
6347.50 6.8208e-17 
6349.00 6.5813e-17 
6350.50 7.0907e-17 
6352.00 6.7627e-17 
6353.50 6.9269e-17 
6355.00 7.7488e-17 
6356.50 8.1193e-17 
6358.00 7.5036e-17 
6359.50 7.4354e-17 
6361.00 8.4471e-17 
6362.50 8.3134e-17 
6364.00 8.6069e-17 
6365.50 8.8268e-17 
6367.00 8.4127e-17 
6368.50 8.6038e-17 
6370.00 8.4856e-17 
6371.50 8.3453e-17 
6373.00 8.6814e-17 
6374.50 8.7213e-17 
6376.00 8.7965e-17 
6377.50 9.2222e-17 
6379.00 9.0196e-17 
6380.50 8.5336e-17 
6382.00 8.2699e-17 
6383.50 8.0394e-17 
6385.00 8.0694e-17 
6386.50 7.7517e-17 
6388.00 7.9994e-17 
6389.50 8.3458e-17 
6391.00 7.8018e-17 
6392.50 7.7020e-17 
6394.00 7.8512e-17 
6395.50 7.6450e-17 
6397.00 7.7713e-17 
6398.50 7.5890e-17 
6400.00 7.1635e-17 
6401.50 7.6016e-17 
6403.00 7.1498e-17 
6404.50 7.2480e-17 
6406.00 7.1097e-17 
6407.50 7.1608e-17 
6409.00 7.1989e-17 
6410.50 6.3834e-17 
6412.00 6.9043e-17 
6413.50 6.4377e-17 
6415.00 6.5662e-17 
6416.50 6.7603e-17 
6418.00 6.5007e-17 
6419.50 6.5563e-17 
6421.00 6.6049e-17 
6422.50 5.5493e-17 
6424.00 5.7368e-17 
6425.50 6.4332e-17 
6427.00 6.0949e-17 
6428.50 5.3036e-17 
6430.00 6.2469e-17 
6431.50 6.0777e-17 
6433.00 5.7798e-17 
6434.50 5.5047e-17 
6436.00 5.6738e-17 
6437.50 6.2785e-17 
6439.00 5.7803e-17 
6440.50 5.0049e-17 
6442.00 5.2190e-17 
6443.50 5.4719e-17 
6445.00 5.3677e-17 
6446.50 5.3342e-17 
6448.00 5.2281e-17 
6449.50 5.0448e-17 
6451.00 5.0177e-17 
6452.50 4.9256e-17 
6454.00 4.7250e-17 
6455.50 4.4041e-17 
6457.00 4.3772e-17 
6458.50 5.1781e-17 
6460.00 5.1281e-17 
6461.50 4.7430e-17 
6463.00 4.6946e-17 
6464.50 4.8224e-17 
6466.00 4.8460e-17 
6467.50 4.7982e-17 
6469.00 4.6267e-17 
6470.50 4.3901e-17 
6472.00 4.5018e-17 
6473.50 4.5737e-17 
6475.00 4.3020e-17 
6476.50 4.3378e-17 
6478.00 4.3448e-17 
6479.50 4.3750e-17 
6481.00 4.2094e-17 
6482.50 4.2920e-17 
6484.00 4.5698e-17 
6485.50 4.5568e-17 
6487.00 4.6503e-17 
6488.50 4.3445e-17 
6490.00 4.4158e-17 
6491.50 4.3194e-17 
6493.00 3.9913e-17 
6494.50 4.3310e-17 
6496.00 4.3816e-17 
6497.50 4.4441e-17 
6499.00 4.2881e-17 
6500.50 3.9430e-17 
6502.00 3.9712e-17 
6503.50 4.1617e-17 
6505.00 4.2345e-17 
6506.50 4.2504e-17 
6508.00 4.1940e-17 
6509.50 4.2816e-17 
6511.00 4.3936e-17 
6512.50 4.4497e-17 
6514.00 4.5145e-17 
6515.50 4.2747e-17 
6517.00 4.1863e-17 
6518.50 4.2565e-17 
6520.00 4.1170e-17 
6521.50 4.0717e-17 
6523.00 4.1741e-17 
6524.50 4.1724e-17 
6526.00 4.0422e-17 
6527.50 3.8970e-17 
6529.00 3.8931e-17 
6530.50 3.8358e-17 
6532.00 3.7705e-17 
6533.50 4.0912e-17 
6535.00 4.1621e-17 
6536.50 4.0168e-17 
6538.00 4.0932e-17 
6539.50 4.1269e-17 
6541.00 4.1233e-17 
6542.50 4.0553e-17 
6544.00 4.2507e-17 
6545.50 3.9854e-17 
6547.00 3.5503e-17 
6548.50 3.8278e-17 
6550.00 3.7946e-17 
6551.50 4.0005e-17 
6553.00 3.8700e-17 
6554.50 3.5786e-17 
6556.00 3.8289e-17 
6557.50 3.8699e-17 
6559.00 4.0300e-17 
6560.50 3.7473e-17 
6562.00 3.5987e-17 
6563.50 4.0069e-17 
6565.00 4.0379e-17 
6566.50 3.8121e-17 
6568.00 3.8178e-17 
6569.50 3.7611e-17 
6571.00 3.8645e-17 
6572.50 4.0406e-17 
6574.00 3.7696e-17 
6575.50 4.0592e-17 
6577.00 4.5014e-17 
6578.50 4.3990e-17 
6580.00 4.0526e-17 
6581.50 3.9472e-17 
6583.00 3.8436e-17 
6584.50 4.0319e-17 
6586.00 3.7210e-17 
6587.50 3.7804e-17 
6589.00 4.0980e-17 
6590.50 3.9464e-17 
6592.00 4.0147e-17 
6593.50 3.5745e-17 
6595.00 3.3684e-17 
6596.50 3.5021e-17 
6598.00 3.6593e-17 
6599.50 3.8290e-17 
6601.00 4.2344e-17 
6602.50 3.4080e-17 
6604.00 3.4138e-17 
6605.50 3.8041e-17 
6607.00 3.7010e-17 
6608.50 3.4082e-17 
6610.00 3.5462e-17 
6611.50 4.1672e-17 
6613.00 3.9165e-17 
6614.50 3.5226e-17 
6616.00 3.6178e-17 
6617.50 3.8250e-17 
6619.00 3.9891e-17 
6620.50 3.7351e-17 
6622.00 3.5457e-17 
6623.50 3.6870e-17 
6625.00 3.8159e-17 
6626.50 3.5771e-17 
6628.00 3.6267e-17 
6629.50 3.5754e-17 
6631.00 3.6454e-17 
6632.50 3.7131e-17 
6634.00 3.7033e-17 
6635.50 3.8959e-17 
6637.00 4.1838e-17 
6638.50 3.9524e-17 
6640.00 3.6779e-17 
6641.50 3.6185e-17 
6643.00 3.5853e-17 
6644.50 3.5976e-17 
6646.00 3.7805e-17 
6647.50 3.4536e-17 
6649.00 3.5339e-17 
6650.50 3.8937e-17 
6652.00 3.5600e-17 
6653.50 3.5095e-17 
6655.00 3.6813e-17 
6656.50 3.6009e-17 
6658.00 3.6042e-17 
6659.50 3.5296e-17 
6661.00 3.5919e-17 
6662.50 3.5761e-17 
6664.00 3.6955e-17 
6665.50 4.1483e-17 
6667.00 3.9413e-17 
6668.50 3.7416e-17 
6670.00 3.6442e-17 
6671.50 3.7083e-17 
6673.00 3.9298e-17 
6674.50 3.7677e-17 
6676.00 3.4862e-17 
6677.50 3.9041e-17 
6679.00 4.0778e-17 
6680.50 3.8719e-17 
6682.00 4.1066e-17 
6683.50 3.8112e-17 
6685.00 3.7536e-17 
6686.50 3.8470e-17 
6688.00 3.7810e-17 
6689.50 3.5612e-17 
6691.00 3.4585e-17 
6692.50 3.6529e-17 
6694.00 4.3797e-17 
6695.50 4.2916e-17 
6697.00 3.9174e-17 
6698.50 3.9969e-17 
6700.00 4.1189e-17 
6701.50 3.8206e-17 
6703.00 3.9329e-17 
6704.50 4.0565e-17 
6706.00 4.0650e-17 
6707.50 4.1668e-17 
6709.00 4.1493e-17 
6710.50 4.0289e-17 
6712.00 4.1456e-17 
6713.50 4.2234e-17 
6715.00 4.1380e-17 
6716.50 4.1789e-17 
6718.00 4.0714e-17 
6719.50 3.9223e-17 
6721.00 3.9953e-17 
6722.50 3.8838e-17 
6724.00 4.2312e-17 
6725.50 4.1860e-17 
6727.00 3.8796e-17 
6728.50 4.1898e-17 
6730.00 4.2579e-17 
6731.50 4.1339e-17 
6733.00 4.0804e-17 
6734.50 4.1800e-17 
6736.00 4.1146e-17 
6737.50 3.6691e-17 
6739.00 3.8895e-17 
6740.50 4.2549e-17 
6742.00 4.1237e-17 
6743.50 3.8658e-17 
6745.00 3.8746e-17 
6746.50 3.8940e-17 
6748.00 3.4966e-17 
6749.50 4.0038e-17 
6751.00 4.3170e-17 
6752.50 4.1372e-17 
6754.00 3.9966e-17 
6755.50 3.9610e-17 
6757.00 4.1384e-17 
6758.50 4.0854e-17 
6760.00 3.6521e-17 
6761.50 3.4512e-17 
6763.00 3.6407e-17 
6764.50 3.7501e-17 
6766.00 3.6623e-17 
6767.50 3.7700e-17 
6769.00 3.7847e-17 
6770.50 3.9188e-17 
6772.00 3.9605e-17 
6773.50 3.7835e-17 
6775.00 3.7098e-17 
6776.50 4.0524e-17 
6778.00 3.9072e-17 
6779.50 3.9503e-17 
6781.00 4.2113e-17 
6782.50 4.0690e-17 
6784.00 3.5285e-17 
6785.50 4.1373e-17 
6787.00 4.2624e-17 
6788.50 4.0058e-17 
6790.00 3.7666e-17 
6791.50 3.6207e-17 
6793.00 3.5180e-17 
6794.50 3.5277e-17 
6796.00 3.5966e-17 
6797.50 3.7858e-17 
6799.00 3.9955e-17 
6800.50 3.9266e-17 
6802.00 3.6934e-17 
6803.50 3.7256e-17 
6805.00 4.0809e-17 
6806.50 4.2528e-17 
6808.00 3.9480e-17 
6809.50 3.9025e-17 
6811.00 4.0849e-17 
6812.50 3.8048e-17 
6814.00 4.2181e-17 
6815.50 3.7494e-17 
6817.00 3.7123e-17 
6818.50 3.7631e-17 
6820.00 3.6457e-17 
6821.50 3.8092e-17 
6823.00 3.8715e-17 
6824.50 3.7653e-17 
6826.00 3.9224e-17 
6827.50 4.1017e-17 
6829.00 4.0271e-17 
6830.50 3.9239e-17 
6832.00 3.6733e-17 
6833.50 3.6155e-17 
6835.00 3.8326e-17 
6836.50 3.6287e-17 
6838.00 3.4923e-17 
6839.50 3.8239e-17 
6841.00 4.1248e-17 
6842.50 3.8953e-17 
6844.00 4.0350e-17 
6845.50 3.6842e-17 
6847.00 3.7613e-17 
6848.50 4.2260e-17 
6850.00 3.7207e-17 
6851.50 4.0276e-17 
6853.00 3.9814e-17 
6854.50 3.7560e-17 
6856.00 3.7929e-17 
6857.50 4.0687e-17 
6859.00 4.1041e-17 
6860.50 3.7445e-17 
6862.00 3.8261e-17 
6863.50 4.1531e-17 
6865.00 4.1842e-17 
6866.50 4.2805e-17 
6868.00 4.2688e-17 
6869.50 3.9723e-17 
6871.00 4.2303e-17 
6872.50 4.1384e-17 
6874.00 3.8179e-17 
6875.50 3.5532e-17 
6877.00 3.7025e-17 
6878.50 4.2697e-17 
6880.00 4.1334e-17 
6881.50 3.9231e-17 
6883.00 3.7212e-17 
6884.50 3.6001e-17 
6886.00 3.7217e-17 
6887.50 4.1124e-17 
6889.00 4.3937e-17 
6890.50 4.6414e-17 
6892.00 4.5672e-17 
6893.50 4.1763e-17 
6895.00 4.1642e-17 
6896.50 4.2826e-17 
6898.00 3.9620e-17 
6899.50 4.0082e-17 
6901.00 4.0508e-17 
6902.50 3.9467e-17 
6904.00 3.8023e-17 
6905.50 4.0011e-17 
6907.00 4.5317e-17 
6908.50 4.2881e-17 
6910.00 4.0005e-17 
6911.50 4.2454e-17 
6913.00 4.4525e-17 
6914.50 4.0600e-17 
6916.00 3.5311e-17 
6917.50 3.8922e-17 
6919.00 4.4105e-17 
6920.50 4.2410e-17 
6922.00 4.0391e-17 
6923.50 3.8023e-17 
6925.00 3.5345e-17 
6926.50 3.7078e-17 
6928.00 4.3277e-17 
6929.50 4.3441e-17 
6931.00 4.1067e-17 
6932.50 3.9583e-17 
6934.00 4.0661e-17 
6935.50 4.3796e-17 
6937.00 4.1856e-17 
6938.50 3.9555e-17 
6940.00 3.9305e-17 
6941.50 4.0958e-17 
6943.00 4.3172e-17 
6944.50 4.3793e-17 
6946.00 4.2318e-17 
6947.50 4.2501e-17 
6949.00 4.6756e-17 
6950.50 4.6361e-17 
6952.00 4.2375e-17 
6953.50 4.1253e-17 
6955.00 4.4701e-17 
6956.50 4.3070e-17 
6958.00 4.3406e-17 
6959.50 4.2692e-17 
6961.00 4.2212e-17 
6962.50 4.2200e-17 
6964.00 4.0714e-17 
6965.50 4.0764e-17 
6967.00 4.0533e-17 
6968.50 3.9680e-17 
6970.00 4.1118e-17 
6971.50 4.1626e-17 
6973.00 4.0211e-17 
6974.50 4.0606e-17 
6976.00 4.1067e-17 
6977.50 4.2353e-17 
6979.00 4.0736e-17 
6980.50 3.9815e-17 
6982.00 4.0962e-17 
6983.50 4.1355e-17 
6985.00 4.1255e-17 
6986.50 3.8366e-17 
6988.00 3.6790e-17 
6989.50 3.8329e-17 
6991.00 3.9785e-17 
6992.50 3.9383e-17 
6994.00 3.9399e-17 
6995.50 4.0823e-17 
6997.00 3.7809e-17 
6998.50 3.7010e-17 
7000.00 4.2438e-17 
7001.50 4.4005e-17 
7003.00 3.6456e-17 
7004.50 4.3746e-17 
7006.00 4.0235e-17 
7007.50 3.7786e-17 
7009.00 4.0598e-17 
7010.50 4.2092e-17 
7012.00 3.9948e-17 
7013.50 3.8613e-17 
7015.00 3.9606e-17 
7016.50 3.8910e-17 
7018.00 3.8901e-17 
7019.50 4.0178e-17 
7021.00 4.1580e-17 
7022.50 4.1790e-17 
7024.00 4.0574e-17 
7025.50 4.3324e-17 
7027.00 4.1011e-17 
7028.50 3.8146e-17 
7030.00 3.9742e-17 
7031.50 4.1574e-17 
7033.00 4.0426e-17 
7034.50 3.8632e-17 
7036.00 3.8392e-17 
7037.50 4.0136e-17 
7039.00 4.0837e-17 
7040.50 4.0111e-17 
7042.00 4.1982e-17 
7043.50 4.1052e-17 
7045.00 3.9339e-17 
7046.50 4.0017e-17 
7048.00 3.9916e-17 
7049.50 3.8220e-17 
7051.00 3.8527e-17 
7052.50 3.9658e-17 
7054.00 4.0358e-17 
7055.50 4.1439e-17 
7057.00 3.9070e-17 
7058.50 3.7770e-17 
7060.00 4.0003e-17 
7061.50 3.9182e-17 
7063.00 3.9683e-17 
7064.50 4.0015e-17 
7066.00 3.8407e-17 
7067.50 3.7628e-17 
7069.00 3.7700e-17 
7070.50 3.6000e-17 
7072.00 3.6712e-17 
7073.50 3.9141e-17 
7075.00 3.7080e-17 
7076.50 3.8625e-17 
7078.00 4.2990e-17 
7079.50 4.3401e-17 
7081.00 3.9329e-17 
7082.50 4.2711e-17 
7084.00 3.9160e-17 
7085.50 4.1913e-17 
7087.00 4.4303e-17 
7088.50 3.9418e-17 
7090.00 3.3775e-17 
7091.50 3.3781e-17 
7093.00 3.6529e-17 
7094.50 3.8030e-17 
7096.00 3.8774e-17 
7097.50 3.7529e-17 
7099.00 3.5454e-17 
7100.50 3.8507e-17 
7102.00 4.2154e-17 
7103.50 3.9466e-17 
7105.00 3.9047e-17 
7106.50 4.0053e-17 
7108.00 3.8681e-17 
7109.50 3.6280e-17 
7111.00 3.5250e-17 
7112.50 3.4522e-17 
7114.00 3.6598e-17 
7115.50 3.7195e-17 
7117.00 3.5196e-17 
7118.50 3.6803e-17 
7120.00 4.2311e-17 
7121.50 3.6120e-17 
7123.00 3.7397e-17 
7124.50 4.1050e-17 
7126.00 4.1414e-17 
7127.50 4.0191e-17 
7129.00 3.8857e-17 
7130.50 3.5898e-17 
7132.00 3.4569e-17 
7133.50 4.0280e-17 
7135.00 3.9667e-17 
7136.50 3.7899e-17 
7138.00 3.9830e-17 
7139.50 4.0407e-17 
7141.00 3.9922e-17 
7142.50 3.9732e-17 
7144.00 3.8216e-17 
7145.50 3.5911e-17 
7147.00 3.7329e-17 
7148.50 4.1359e-17 
7150.00 3.9274e-17 
7151.50 3.8285e-17 
7153.00 3.7249e-17 
7154.50 3.6272e-17 
7156.00 3.6263e-17 
7157.50 3.5883e-17 
7159.00 3.3958e-17 
7160.50 3.5347e-17 
7162.00 3.8844e-17 
7163.50 3.8475e-17 
7165.00 3.9634e-17 
7166.50 3.9436e-17 
7168.00 3.5665e-17 
7169.50 3.6716e-17 
7171.00 3.4780e-17 
7172.50 3.8612e-17 
7174.00 4.0999e-17 
7175.50 3.9792e-17 
7177.00 3.7217e-17 
7178.50 3.5148e-17 
7180.00 3.4265e-17 
7181.50 3.5892e-17 
7183.00 3.6415e-17 
7184.50 4.0691e-17 
7186.00 4.1629e-17 
7187.50 3.9099e-17 
7189.00 3.9994e-17 
7190.50 3.8189e-17 
7192.00 3.5767e-17 
7193.50 3.5736e-17 
7195.00 3.6896e-17 
7196.50 3.6632e-17 
7198.00 3.6250e-17 
7199.50 4.0226e-17 
7201.00 3.5591e-17 
7202.50 3.6775e-17 
7204.00 3.6997e-17 
7205.50 3.6247e-17 
7207.00 3.6490e-17 
7208.50 3.7653e-17 
7210.00 3.8440e-17 
7211.50 3.7723e-17 
7213.00 3.5884e-17 
7214.50 3.9414e-17 
7216.00 4.0661e-17 
7217.50 3.7310e-17 
7219.00 4.0310e-17 
7220.50 3.8029e-17 
7222.00 3.7382e-17 
7223.50 3.7756e-17 
7225.00 3.7897e-17 
7226.50 3.9143e-17 
7228.00 4.0811e-17 
7229.50 3.8719e-17 
7231.00 4.0694e-17 
7232.50 3.5756e-17 
7234.00 3.5656e-17 
7235.50 3.9431e-17 
7237.00 4.0957e-17 
7238.50 3.8484e-17 
7240.00 3.9469e-17 
7241.50 4.3232e-17 
7243.00 3.6511e-17 
7244.50 3.5775e-17 
7246.00 3.9466e-17 
7247.50 3.6944e-17 
7249.00 3.5958e-17 
7250.50 3.8795e-17 
7252.00 4.1049e-17 
7253.50 4.0946e-17 
7255.00 3.9539e-17 
7256.50 3.8983e-17 
7258.00 4.0513e-17 
7259.50 4.2559e-17 
7261.00 3.7546e-17 
7262.50 3.8947e-17 
7264.00 3.8909e-17 
7265.50 3.8500e-17 
7267.00 3.9548e-17 
7268.50 4.0408e-17 
7270.00 3.9503e-17 
7271.50 3.8264e-17 
7273.00 3.9616e-17 
7274.50 3.9916e-17 
7276.00 4.4094e-17 
7277.50 4.7404e-17 
7279.00 3.9277e-17 
7280.50 3.4000e-17 
7282.00 3.4500e-17 
7283.50 3.8160e-17 
7285.00 4.1124e-17 
7286.50 4.0843e-17 
7288.00 3.8178e-17 
7289.50 3.7929e-17 
7291.00 3.8208e-17 
7292.50 3.6497e-17 
7294.00 3.7464e-17 
7295.50 3.9340e-17 
7297.00 3.9573e-17 
7298.50 3.8249e-17 
7300.00 3.7011e-17 
7301.50 3.5842e-17 
7303.00 4.1213e-17 
7304.50 3.8467e-17 
7306.00 3.5550e-17 
7307.50 3.6905e-17 
7309.00 3.6468e-17 
7310.50 3.8119e-17 
7312.00 4.0546e-17 
7313.50 3.9542e-17 
7315.00 3.8983e-17 
7316.50 4.0500e-17 
7318.00 3.9068e-17 
7319.50 3.3430e-17 
7321.00 3.6157e-17 
7322.50 3.7915e-17 
7324.00 3.6931e-17 
7325.50 3.6031e-17 
7327.00 3.7413e-17 
7328.50 3.8911e-17 
7330.00 3.4834e-17 
7331.50 3.6072e-17 
7333.00 3.7290e-17 
7334.50 3.5898e-17 
7336.00 3.4769e-17 
7337.50 3.5234e-17 
7339.00 3.5312e-17 
7340.50 3.2996e-17 
7342.00 3.0533e-17 
7343.50 3.3354e-17 
7345.00 3.5895e-17 
7346.50 3.6655e-17 
7348.00 3.7222e-17 
7349.50 3.6940e-17 
7351.00 3.6087e-17 
7352.50 3.5182e-17 
7354.00 3.4997e-17 
7355.50 3.6445e-17 
7357.00 3.6150e-17 
7358.50 3.4684e-17 
7360.00 3.8420e-17 
7361.50 3.7490e-17 
7363.00 3.6897e-17 
7364.50 3.9104e-17 
7366.00 4.1632e-17 
7367.50 4.0754e-17 
7369.00 3.8895e-17 
7370.50 4.5465e-17 
7372.00 2.9109e-17 
7373.50 3.1268e-17 
7375.00 3.5835e-17 
7376.50 3.6674e-17 
7378.00 3.5890e-17 
7379.50 3.7692e-17 
7381.00 4.1516e-17 
7382.50 3.8427e-17 
7384.00 3.7267e-17 
7385.50 3.8224e-17 
7387.00 4.0326e-17 
7388.50 4.0865e-17 
7390.00 3.7619e-17 
7391.50 3.5716e-17 
7393.00 4.0369e-17 
7394.50 4.0189e-17 
7396.00 3.5552e-17 
7397.50 3.6411e-17 
7399.00 4.1041e-17 
7400.50 4.1891e-17 
7402.00 4.1782e-17 
7403.50 4.3002e-17 
7405.00 4.4493e-17 
7406.50 4.3104e-17 
7408.00 3.9546e-17 
7409.50 3.7128e-17 
7411.00 3.5984e-17 
7412.50 3.7191e-17 
7414.00 3.7854e-17 
7415.50 3.7877e-17 
7417.00 3.8178e-17 
7418.50 3.8853e-17 
7420.00 3.9795e-17 
7421.50 4.0907e-17 
7423.00 3.6450e-17 
7424.50 3.9861e-17 
7426.00 4.2079e-17 
7427.50 4.0745e-17 
7429.00 3.8386e-17 
7430.50 3.8114e-17 
7432.00 3.8051e-17 
7433.50 3.8361e-17 
7435.00 3.9478e-17 
7436.50 3.9362e-17 
7438.00 3.9225e-17 
7439.50 3.8401e-17 
7441.00 3.5171e-17 
7442.50 3.1091e-17 
7444.00 3.8577e-17 
7445.50 3.6644e-17 
7447.00 3.6915e-17 
7448.50 3.9254e-17 
7450.00 3.9542e-17 
7451.50 3.8094e-17 
7453.00 3.8004e-17 
7454.50 4.0853e-17 
7456.00 3.9616e-17 
7457.50 3.7350e-17 
7459.00 3.5699e-17 
7460.50 3.4122e-17 
7462.00 3.4269e-17 
7463.50 3.5318e-17 
7465.00 3.5958e-17 
7466.50 3.5827e-17 
7468.00 3.6345e-17 
7469.50 3.6537e-17 
7471.00 3.5101e-17 
7472.50 3.4068e-17 
7474.00 3.5239e-17 
7475.50 3.5558e-17 
7477.00 3.4482e-17 
7478.50 3.6319e-17 
7480.00 3.9037e-17 
7481.50 3.6648e-17 
7483.00 3.4572e-17 
7484.50 3.5591e-17 
7486.00 3.5530e-17 
7487.50 3.4263e-17 
7489.00 3.3454e-17 
7490.50 3.2872e-17 
7492.00 3.1480e-17 
7493.50 3.3472e-17 
7495.00 3.7943e-17 
7496.50 3.4362e-17 
7498.00 3.2603e-17 
7499.50 3.5564e-17 
7501.00 3.7051e-17 
7502.50 3.2281e-17 
7504.00 4.1230e-17 
7505.50 3.9013e-17 
7507.00 3.5951e-17 
7508.50 3.5466e-17 
7510.00 3.6356e-17 
7511.50 3.6685e-17 
7513.00 3.6728e-17 
7514.50 4.2175e-17 
7516.00 4.1100e-17 
7517.50 4.1471e-17 
7519.00 4.2183e-17 
7520.50 4.1547e-17 
7522.00 3.9314e-17 
7523.50 3.6998e-17 
7525.00 3.7585e-17 
7526.50 3.8670e-17 
7528.00 3.7932e-17 
7529.50 3.7157e-17 
7531.00 3.6768e-17 
7532.50 3.6892e-17 
7534.00 3.7595e-17 
7535.50 3.8914e-17 
7537.00 3.9841e-17 
7538.50 3.6656e-17 
7540.00 3.6099e-17 
7541.50 3.6414e-17 
7543.00 3.7019e-17 
7544.50 3.9150e-17 
7546.00 4.3114e-17 
7547.50 3.9012e-17 
7549.00 3.6125e-17 
7550.50 3.8507e-17 
7552.00 4.0522e-17 
7553.50 4.0327e-17 
7555.00 3.9397e-17 
7556.50 3.9391e-17 
7558.00 3.7934e-17 
7559.50 3.9490e-17 
7561.00 4.0179e-17 
7562.50 4.0267e-17 
7564.00 4.1000e-17 
7565.50 4.2039e-17 
7567.00 4.1414e-17 
7568.50 3.6361e-17 
7570.00 3.8399e-17 
7571.50 3.7117e-17 
7573.00 3.6987e-17 
7574.50 4.0225e-17 
7576.00 4.2160e-17 
7577.50 4.0241e-17 
7579.00 3.7769e-17 
7580.50 3.9016e-17 
7582.00 4.1261e-17 
7583.50 4.2996e-17 
7585.00 4.2632e-17 
7586.50 3.8914e-17 
7588.00 3.5151e-17 
7589.50 3.7703e-17 
7591.00 3.8459e-17 
7592.50 3.7266e-17 
7594.00 3.8561e-17 
7595.50 4.1021e-17 
7597.00 4.1017e-17 
7598.50 3.8104e-17 
7600.00 3.5888e-17 
7601.50 3.9249e-17 
7603.00 4.1410e-17 
7604.50 4.2280e-17 
7606.00 4.1137e-17 
7607.50 3.7068e-17 
7609.00 3.6988e-17 
7610.50 4.9966e-17 
7612.00 3.5432e-17 
7613.50 3.0098e-17 
7615.00 3.4791e-17 
7616.50 3.7526e-17 
7618.00 3.9361e-17 
7619.50 4.0849e-17 
7621.00 3.9501e-17 
7622.50 3.7609e-17 
7624.00 3.5292e-17 
7625.50 3.5366e-17 
7627.00 3.7436e-17 
7628.50 3.8464e-17 
7630.00 3.6913e-17 
7631.50 3.4770e-17 
7633.00 3.9360e-17 
7634.50 4.5475e-17 
7636.00 4.3107e-17 
7637.50 3.6311e-17 
7639.00 3.4856e-17 
7640.50 4.0859e-17 
7642.00 3.7511e-17 
7643.50 3.7472e-17 
7645.00 3.9109e-17 
7646.50 4.0073e-17 
7648.00 4.0502e-17 
7649.50 4.0404e-17 
7651.00 3.9744e-17 
7652.50 3.8504e-17 
7654.00 4.1447e-17 
7655.50 4.1752e-17 
7657.00 4.0232e-17 
7658.50 3.8692e-17 
7660.00 3.8035e-17 
7661.50 3.8125e-17 
7663.00 3.8424e-17 
7664.50 4.0772e-17 
7666.00 3.8882e-17 
7667.50 3.7981e-17 
7669.00 3.9839e-17 
7670.50 4.2216e-17 
7672.00 3.8277e-17 
7673.50 3.9033e-17 
7675.00 4.2558e-17 
7676.50 4.2869e-17 
7678.00 4.2817e-17 
7679.50 4.3852e-17 
7681.00 4.5252e-17 
7682.50 4.0521e-17 
7684.00 4.1257e-17 
7685.50 4.0657e-17 
7687.00 4.0267e-17 
7688.50 4.0808e-17 
7690.00 4.1777e-17 
7691.50 4.1491e-17 
7693.00 3.7677e-17 
7694.50 4.4425e-17 
7696.00 4.5832e-17 
7697.50 4.5988e-17 
7699.00 4.5415e-17 
7700.50 4.3604e-17 
7702.00 4.0119e-17 
7703.50 4.4486e-17 
7705.00 4.4907e-17 
7706.50 4.1879e-17 
7708.00 4.0837e-17 
7709.50 4.3381e-17 
7711.00 4.6326e-17 
7712.50 4.5156e-17 
7714.00 4.8904e-17 
7715.50 4.5001e-17 
7717.00 4.2486e-17 
7718.50 4.1236e-17 
7720.00 3.9025e-17 
7721.50 4.0052e-17 
7723.00 4.6429e-17 
7724.50 4.1312e-17 
7726.00 3.9415e-17 
7727.50 4.0248e-17 
7729.00 4.1574e-17 
7730.50 4.1581e-17 
7732.00 3.9140e-17 
7733.50 3.8016e-17 
7735.00 4.0188e-17 
7736.50 4.2699e-17 
7738.00 4.4061e-17 
7739.50 4.3817e-17 
7741.00 3.9090e-17 
7742.50 3.8419e-17 
7744.00 4.2071e-17 
7745.50 4.2889e-17 
7747.00 4.3640e-17 
7748.50 4.7421e-17 
7750.00 4.6557e-17 
7751.50 4.1620e-17 
7753.00 4.0191e-17 
7754.50 4.1631e-17 
7756.00 4.2966e-17 
7757.50 4.2525e-17 
7759.00 4.1867e-17 
7760.50 4.1070e-17 
7762.00 4.1282e-17 
7763.50 4.1386e-17 
7765.00 4.1248e-17 
7766.50 4.1442e-17 
7768.00 4.3168e-17 
7769.50 4.5530e-17 
7771.00 4.4657e-17 
7772.50 4.4759e-17 
7774.00 4.4757e-17 
7775.50 4.3883e-17 
7777.00 4.1901e-17 
7778.50 4.3009e-17 
7780.00 4.1157e-17 
7781.50 3.9705e-17 
7783.00 4.0576e-17 
7784.50 4.3102e-17 
7786.00 4.5265e-17 
7787.50 4.3582e-17 
7789.00 4.1558e-17 
7790.50 4.2768e-17 
7792.00 4.6012e-17 
7793.50 4.6490e-17 
7795.00 4.0838e-17 
7796.50 3.8068e-17 
7798.00 4.6598e-17 
7799.50 4.2583e-17 
7801.00 4.0494e-17 
7802.50 4.0428e-17 
7804.00 4.0208e-17 
7805.50 4.0443e-17 
7807.00 4.0651e-17 
7808.50 4.0697e-17 
7810.00 4.2552e-17 
7811.50 4.4994e-17 
7813.00 4.6123e-17 
7814.50 4.3179e-17 
7816.00 4.2078e-17 
7817.50 4.3616e-17 
7819.00 4.4957e-17 
7820.50 4.4686e-17 
7822.00 4.1938e-17 
7823.50 3.6153e-17 
7825.00 3.4575e-17 
7826.50 4.0648e-17 
7828.00 4.6147e-17 
7829.50 4.7497e-17 
7831.00 4.4173e-17 
7832.50 4.4228e-17 
7834.00 4.5059e-17 
7835.50 4.6646e-17 
7837.00 4.7054e-17 
7838.50 4.6545e-17 
7840.00 4.5820e-17 
7841.50 4.5197e-17 
7843.00 4.0440e-17 
7844.50 3.9679e-17 
7846.00 4.0882e-17 
7847.50 4.3161e-17 
7849.00 4.5468e-17 
7850.50 4.4859e-17 
7852.00 4.3929e-17 
7853.50 4.7825e-17 
7855.00 4.3429e-17 
7856.50 3.6682e-17 
7858.00 4.0168e-17 
7859.50 4.5183e-17 
7861.00 4.5498e-17 
7862.50 4.6274e-17 
7864.00 4.5328e-17 
7865.50 4.2946e-17 
7867.00 4.1094e-17 
7868.50 3.9556e-17 
7870.00 4.2764e-17 
7871.50 4.4295e-17 
7873.00 4.2754e-17 
7874.50 3.9879e-17 
7876.00 4.1916e-17 
7877.50 4.5999e-17 
7879.00 4.2186e-17 
7880.50 4.2000e-17 
7882.00 4.4150e-17 
7883.50 4.6163e-17 
7885.00 4.3360e-17 
7886.50 4.6439e-17 
7888.00 4.6578e-17 
7889.50 4.6284e-17 
7891.00 4.5431e-17 
7892.50 4.3819e-17 
7894.00 4.3228e-17 
7895.50 4.4598e-17 
7897.00 4.3433e-17 
7898.50 4.4207e-17 
7900.00 4.5414e-17 
7901.50 4.2685e-17 
7903.00 4.1751e-17 
7904.50 4.2908e-17 
7906.00 4.3463e-17 
7907.50 4.5114e-17 
7909.00 4.6963e-17 
7910.50 4.3440e-17 
7912.00 4.6386e-17 
7913.50 4.6149e-17 
7915.00 4.3951e-17 
7916.50 4.2141e-17 
7918.00 4.2743e-17 
7919.50 4.5745e-17 
7921.00 4.7806e-17 
7922.50 4.2580e-17 
7924.00 4.0578e-17 
7925.50 4.2421e-17 
7927.00 4.4378e-17 
7928.50 3.7224e-17 
7930.00 4.2795e-17 
7931.50 4.2446e-17 
7933.00 4.2406e-17 
7934.50 4.4758e-17 
7936.00 4.2560e-17 
7937.50 3.8950e-17 
7939.00 4.2396e-17 
7940.50 4.5717e-17 
7942.00 4.7073e-17 
7943.50 4.5515e-17 
7945.00 3.9785e-17 
7946.50 3.8235e-17 
7948.00 4.0544e-17 
7949.50 4.4054e-17 
7951.00 4.6513e-17 
7952.50 4.4424e-17 
7954.00 4.4934e-17 
7955.50 4.3977e-17 
7957.00 4.3833e-17 
7958.50 4.4466e-17 
7960.00 4.5453e-17 
7961.50 4.5421e-17 
7963.00 4.6798e-17 
7964.50 4.6669e-17 
7966.00 4.3882e-17 
7967.50 4.0247e-17 
7969.00 4.2606e-17 
7970.50 4.5324e-17 
7972.00 4.1188e-17 
7973.50 4.0875e-17 
7975.00 4.2788e-17 
7976.50 4.4008e-17 
7978.00 4.5546e-17 
7979.50 4.2714e-17 
7981.00 4.1010e-17 
7982.50 4.2163e-17 
7984.00 4.5612e-17 
7985.50 4.6455e-17 
7987.00 4.3027e-17 
7988.50 4.2374e-17 
7990.00 4.3190e-17 
7991.50 4.3928e-17 
7993.00 4.2617e-17 
7994.50 3.7731e-17 
7996.00 3.9596e-17 
7997.50 4.1146e-17 
7999.00 4.1737e-17 
8000.50 4.1362e-17 
8002.00 4.2526e-17 
8003.50 4.4195e-17 
8005.00 4.3029e-17 
8006.50 4.0444e-17 
8008.00 3.8981e-17 
8009.50 4.3962e-17 
8011.00 4.4047e-17 
8012.50 4.2496e-17 
8014.00 4.2134e-17 
8015.50 4.2834e-17 
8017.00 4.4087e-17 
8018.50 4.3411e-17 
8020.00 4.2563e-17 
8021.50 3.9184e-17 
8023.00 3.8792e-17 
8024.50 4.3025e-17 
8026.00 4.5345e-17 
8027.50 3.5604e-17 
8029.00 3.7523e-17 
8030.50 4.1796e-17 
8032.00 4.4335e-17 
8033.50 3.9842e-17 
8035.00 4.1589e-17 
8036.50 4.4248e-17 
8038.00 4.3347e-17 
8039.50 4.2156e-17 
8041.00 4.5194e-17 
8042.50 4.5679e-17 
8044.00 4.3970e-17 
8045.50 4.2921e-17 
8047.00 4.2534e-17 
8048.50 4.2817e-17 
8050.00 4.4090e-17 
8051.50 4.6497e-17 
8053.00 4.2912e-17 
8054.50 4.0090e-17 
8056.00 4.0457e-17 
8057.50 4.3842e-17 
8059.00 4.4747e-17 
8060.50 4.2818e-17 
8062.00 4.0457e-17 
8063.50 3.8333e-17 
8065.00 3.6753e-17 
8066.50 4.4216e-17 
8068.00 4.6019e-17 
8069.50 4.6082e-17 
8071.00 4.6014e-17 
8072.50 4.7858e-17 
8074.00 4.1766e-17 
8075.50 4.4036e-17 
8077.00 4.3058e-17 
8078.50 4.0848e-17 
8080.00 3.9762e-17 
8081.50 4.0877e-17 
8083.00 4.0727e-17 
8084.50 4.2767e-17 
8086.00 4.4124e-17 
8087.50 4.3017e-17 
8089.00 4.1056e-17 
8090.50 4.4497e-17 
8092.00 4.6027e-17 
8093.50 4.4264e-17 
8095.00 3.9665e-17 
8096.50 4.0492e-17 
8098.00 4.3659e-17 
8099.50 4.5361e-17 
8101.00 4.5157e-17 
8102.50 4.3055e-17 
8104.00 3.9892e-17 
8105.50 3.9804e-17 
8107.00 4.0961e-17 
8108.50 4.2027e-17 
8110.00 4.2611e-17 
8111.50 4.2536e-17 
8113.00 4.4474e-17 
8114.50 4.4284e-17 
8116.00 4.2744e-17 
8117.50 4.1726e-17 
8119.00 4.6831e-17 
8120.50 4.1610e-17 
8122.00 4.2814e-17 
8123.50 4.4123e-17 
8125.00 4.4868e-17 
8126.50 4.5567e-17 
8128.00 4.8454e-17 
8129.50 4.3557e-17 
8131.00 4.3096e-17 
8132.50 4.5197e-17 
8134.00 4.1995e-17 
8135.50 4.1419e-17 
8137.00 4.3647e-17 
8138.50 4.4324e-17 
8140.00 4.3640e-17 
8141.50 4.2921e-17 
8143.00 4.3165e-17 
8144.50 4.6129e-17 
8146.00 4.7795e-17 
8147.50 4.7398e-17 
8149.00 4.3904e-17 
8150.50 4.1481e-17 
8152.00 4.3192e-17 
8153.50 4.2974e-17 
8155.00 4.1744e-17 
8156.50 4.3081e-17 
8158.00 4.6147e-17 
8159.50 4.6109e-17 
8161.00 4.4472e-17 
8162.50 4.2379e-17 
8164.00 4.2281e-17 
8165.50 4.0777e-17 
8167.00 4.2688e-17 
8168.50 4.5316e-17 
8170.00 4.7199e-17 
8171.50 4.4826e-17 
8173.00 3.9653e-17 
8174.50 4.2709e-17 
8176.00 4.4340e-17 
8177.50 4.3411e-17 
8179.00 4.1669e-17 
8180.50 4.0772e-17 
8182.00 4.1866e-17 
8183.50 4.3529e-17 
8185.00 4.4666e-17 
8186.50 4.0736e-17 
8188.00 4.4027e-17 
8189.50 4.2764e-17 
8191.00 4.0506e-17 
8192.50 3.8861e-17 
8194.00 4.2684e-17 
8195.50 4.6643e-17 
8197.00 4.4320e-17 
8198.50 4.3038e-17 
8200.00 4.5521e-17 
8201.50 3.9181e-17 
8203.00 3.6176e-17 
8204.50 3.7660e-17 
8206.00 4.0927e-17 
8207.50 4.4230e-17 
8209.00 4.4250e-17 
8210.50 4.1947e-17 
8212.00 4.1487e-17 
8213.50 4.1666e-17 
8215.00 4.1121e-17 
8216.50 4.0966e-17 
8218.00 4.3398e-17 
8219.50 4.4502e-17 
8221.00 4.4562e-17 
8222.50 4.4387e-17 
8224.00 4.6229e-17 
8225.50 4.5843e-17 
8227.00 4.4055e-17 
8228.50 4.1714e-17 
8230.00 4.1477e-17 
8231.50 4.6370e-17 
8233.00 4.2630e-17 
8234.50 4.2133e-17 
8236.00 4.6830e-17 
8237.50 4.5422e-17 
8239.00 4.1512e-17 
8240.50 4.4620e-17 
8242.00 4.7359e-17 
8243.50 4.5751e-17 
8245.00 4.2706e-17 
8246.50 4.3716e-17 
8248.00 4.5591e-17 
8249.50 4.7194e-17 
8251.00 4.7031e-17 
8252.50 4.4593e-17 
8254.00 4.6507e-17 
8255.50 4.6188e-17 
8257.00 4.4211e-17 
8258.50 4.2993e-17 
8260.00 4.4014e-17 
8261.50 4.3831e-17 
8263.00 4.2965e-17 
8264.50 4.1967e-17 
8266.00 4.5218e-17 
8267.50 4.2782e-17 
8269.00 4.2630e-17 
8270.50 4.3295e-17 
8272.00 4.4113e-17 
8273.50 4.3681e-17 
8275.00 4.3975e-17 
8276.50 4.4667e-17 
8278.00 4.5250e-17 
8279.50 4.4798e-17 
8281.00 4.4707e-17 
8282.50 4.5382e-17 
8284.00 4.5480e-17 
8285.50 4.4855e-17 
8287.00 4.3468e-17 
8288.50 4.6557e-17 
8290.00 4.2681e-17 
8291.50 3.8840e-17 
8293.00 3.8242e-17 
8294.50 4.4378e-17 
8296.00 4.7101e-17 
8297.50 4.7558e-17 
8299.00 4.7297e-17 
8300.50 4.8677e-17 
8302.00 3.8289e-17 
8303.50 4.0282e-17 
8305.00 4.2476e-17 
8306.50 4.3150e-17 
8308.00 4.0241e-17 
8309.50 4.3127e-17 
8311.00 4.4176e-17 
8312.50 4.3920e-17 
8314.00 4.2287e-17 
8315.50 3.9012e-17 
8317.00 4.0719e-17 
8318.50 4.3673e-17 
8320.00 4.6593e-17 
8321.50 4.6618e-17 
8323.00 4.3072e-17 
8324.50 4.2766e-17 
8326.00 4.2430e-17 
8327.50 4.1680e-17 
8329.00 4.5141e-17 
8330.50 4.7415e-17 
8332.00 4.5800e-17 
8333.50 4.3275e-17 
8335.00 4.2767e-17 
8336.50 4.3974e-17 
8338.00 4.4801e-17 
8339.50 4.4753e-17 
8341.00 4.4165e-17 
8342.50 4.5675e-17 
8344.00 5.0531e-17 
8345.50 5.0601e-17 
8347.00 4.8172e-17 
8348.50 4.3670e-17 
8350.00 4.3528e-17 
8351.50 4.1016e-17 
8353.00 3.7701e-17 
8354.50 3.4713e-17 
8356.00 3.6276e-17 
8357.50 4.1135e-17 
8359.00 4.5052e-17 
8360.50 4.6949e-17 
8362.00 4.5629e-17 
8363.50 4.1662e-17 
8365.00 4.2076e-17 
8366.50 4.3510e-17 
8368.00 4.4574e-17 
8369.50 4.0514e-17 
8371.00 4.5482e-17 
8372.50 4.4989e-17 
8374.00 4.3294e-17 
8375.50 4.1615e-17 
8377.00 4.3725e-17 
8378.50 4.4411e-17 
8380.00 4.4089e-17 
8381.50 4.3883e-17 
8383.00 4.7714e-17 
8384.50 4.3544e-17 
8386.00 4.0121e-17 
8387.50 3.8769e-17 
8389.00 4.0719e-17 
8390.50 4.5939e-17 
8392.00 4.5263e-17 
8393.50 4.3798e-17 
8395.00 4.2320e-17 
8396.50 4.3487e-17 
8398.00 4.7917e-17 
8399.50 4.8560e-17 
8401.00 4.6045e-17 
8402.50 3.9271e-17 
8404.00 3.8560e-17 
8405.50 4.1165e-17 
8407.00 4.2045e-17 
8408.50 4.1438e-17 
8410.00 4.1428e-17 
8411.50 4.2996e-17 
8413.00 4.3573e-17 
8414.50 4.3303e-17 
8416.00 4.1699e-17 
8417.50 2.7607e-17 
8419.00 3.2381e-17 
8420.50 3.7943e-17 
8422.00 4.2083e-17 
8423.50 4.0695e-17 
8425.00 4.4178e-17 
8426.50 4.4724e-17 
8428.00 4.4496e-17 
8429.50 4.6588e-17 
8431.00 5.3453e-17 
8432.50 5.1527e-17 
8434.00 4.7275e-17 
8435.50 4.1874e-17 
8437.00 4.5914e-17 
8438.50 4.2664e-17 
8440.00 4.2825e-17 
8441.50 4.5068e-17 
8443.00 4.4207e-17 
8444.50 4.2324e-17 
8446.00 4.2073e-17 
8447.50 4.2419e-17 
8449.00 4.3014e-17 
8450.50 4.1499e-17 
8452.00 4.1758e-17 
8453.50 4.0919e-17 
8455.00 3.8706e-17 
8456.50 3.9147e-17 
8458.00 4.1983e-17 
8459.50 4.2773e-17 
8461.00 4.1920e-17 
8462.50 3.8595e-17 
8464.00 4.5697e-17 
8465.50 4.7909e-17 
8467.00 4.8178e-17 
8468.50 4.6781e-17 
8470.00 4.6329e-17 
8471.50 4.5197e-17 
8473.00 4.3160e-17 
8474.50 4.0453e-17 
8476.00 4.3496e-17 
8477.50 4.5435e-17 
8479.00 4.5792e-17 
8480.50 4.5005e-17 
8482.00 4.2836e-17 
8483.50 4.1498e-17 
8485.00 4.0979e-17 
8486.50 4.0776e-17 
8488.00 4.0827e-17 
8489.50 4.1581e-17 
8491.00 4.3117e-17 
8492.50 4.4130e-17 
8494.00 4.4323e-17 
8495.50 4.1124e-17 
8497.00 4.1616e-17 
8498.50 4.2235e-17 
8500.00 4.2737e-17 
8501.50 4.1606e-17 
8503.00 4.5438e-17 
8504.50 4.6127e-17 
8506.00 4.3567e-17 
8507.50 3.3483e-17 
8509.00 3.8309e-17 
8510.50 3.8967e-17 
8512.00 3.9259e-17 
8513.50 4.0193e-17 
8515.00 4.1027e-17 
8516.50 4.0812e-17 
8518.00 4.0835e-17 
8519.50 4.1170e-17 
8521.00 4.1708e-17 
8522.50 4.0375e-17 
8524.00 3.9655e-17 
8525.50 3.9339e-17 
8527.00 3.9155e-17 
8528.50 3.9126e-17 
8530.00 3.9493e-17 
8531.50 3.9793e-17 
8533.00 3.9356e-17 
8534.50 3.7230e-17 
8536.00 3.7031e-17 
8537.50 3.6828e-17 
8539.00 3.5914e-17 
8540.50 3.5881e-17 
8542.00 3.9015e-17 
8543.50 4.1394e-17 
8545.00 4.2473e-17 
8546.50 3.8219e-17 
8548.00 4.1274e-17 
8549.50 4.2828e-17 
8551.00 4.2863e-17 
8552.50 3.8980e-17 
8554.00 3.9396e-17 
8555.50 3.9743e-17 
8557.00 3.9924e-17 
8558.50 3.9323e-17 
8560.00 4.0041e-17 
8561.50 4.2049e-17 
8563.00 4.4184e-17 
8564.50 4.5438e-17 
8566.00 4.2311e-17 
8567.50 4.1016e-17 
8569.00 3.9446e-17 
8570.50 3.6553e-17 
8572.00 3.8033e-17 
8573.50 3.8983e-17 
8575.00 3.9372e-17 
8576.50 3.9024e-17 
8578.00 4.0267e-17 
8579.50 4.1366e-17 
8581.00 4.1304e-17 
8582.50 4.0099e-17 
8584.00 3.9571e-17 
8585.50 3.9501e-17 
8587.00 3.9159e-17 
8588.50 3.8612e-17 
8590.00 3.7913e-17 
8591.50 3.8550e-17 
8593.00 4.0340e-17 
8594.50 4.2068e-17 
8596.00 3.9321e-17 
8597.50 3.8003e-17 
8599.00 3.8540e-17 
8600.50 3.9525e-17 
8602.00 3.9522e-17 
8603.50 3.8628e-17 
8605.00 3.8924e-17 
8606.50 3.9287e-17 
8608.00 3.8897e-17 
8609.50 3.8741e-17 
8611.00 3.7950e-17 
8612.50 3.6505e-17 
8614.00 3.3717e-17 
8615.50 3.4924e-17 
8617.00 3.7537e-17 
8618.50 3.8772e-17 
8620.00 3.7149e-17 
8621.50 4.1222e-17 
8623.00 4.1594e-17 
8624.50 3.7876e-17 
8626.00 2.8507e-17 
8627.50 3.6010e-17 
8629.00 3.9358e-17 
8630.50 4.0708e-17 
8632.00 3.9862e-17 
8633.50 3.9239e-17 
8635.00 3.8171e-17 
8636.50 3.6905e-17 
8638.00 3.5587e-17 
8639.50 4.4806e-17 
8641.00 4.0887e-17 
8642.50 3.9074e-17 
8644.00 3.9038e-17 
8645.50 3.8572e-17 
8647.00 3.6523e-17 
8648.50 3.6375e-17 
8650.00 3.7728e-17 
8651.50 4.1394e-17 
8653.00 3.9356e-17 
8654.50 3.8153e-17 
8656.00 3.7780e-17 
8657.50 4.1701e-17 
8659.00 4.1633e-17 
8660.50 3.8874e-17 
8662.00 3.5370e-17 
8663.50 4.1089e-17 
8665.00 3.6707e-17 
8666.50 3.7742e-17 
8668.00 4.1858e-17 
8669.50 4.8165e-17 
8671.00 4.5971e-17 
8672.50 4.2090e-17 
8674.00 3.7530e-17 
8675.50 3.5168e-17 
8677.00 3.4813e-17 
8678.50 3.5999e-17 
8680.00 3.7895e-17 
8681.50 3.9474e-17 
8683.00 3.8327e-17 
8684.50 3.7696e-17 
8686.00 3.7694e-17 
8687.50 4.1076e-17 
8689.00 3.6825e-17 
8690.50 3.7730e-17 
8692.00 4.0619e-17 
8693.50 4.0297e-17 
8695.00 3.7002e-17 
8696.50 3.7525e-17 
8698.00 3.9240e-17 
8699.50 3.5461e-17 
8701.00 3.5531e-17 
8702.50 3.6019e-17 
8704.00 3.6929e-17 
8705.50 3.9843e-17 
8707.00 4.1855e-17 
8708.50 4.1891e-17 
8710.00 4.0858e-17 
8711.50 3.9421e-17 
8713.00 3.9933e-17 
8714.50 4.0423e-17 
8716.00 4.0544e-17 
8717.50 3.5384e-17 
8719.00 3.4368e-17 
8720.50 3.7388e-17 
8722.00 4.2610e-17 
8723.50 3.7887e-17 
8725.00 3.9071e-17 
8726.50 3.9064e-17 
8728.00 3.8218e-17 
8729.50 3.8704e-17 
8731.00 4.0839e-17 
8732.50 4.1757e-17 
8734.00 4.1655e-17 
8735.50 3.9557e-17 
8737.00 4.0885e-17 
8738.50 4.0943e-17 
8740.00 3.9675e-17 
8741.50 3.7282e-17 
8743.00 3.6849e-17 
8744.50 3.6725e-17 
8746.00 3.6949e-17 
8747.50 3.8536e-17 
8749.00 3.6429e-17 
8750.50 3.5857e-17 
8752.00 3.8017e-17 
8753.50 3.9065e-17 
8755.00 3.9168e-17 
8756.50 3.9917e-17 
8758.00 4.2270e-17 
8759.50 3.6760e-17 
8761.00 3.7612e-17 
8762.50 3.8582e-17 
8764.00 3.7519e-17 
8765.50 4.2918e-17 
8767.00 4.5492e-17 
8768.50 4.4950e-17 
8770.00 3.4278e-17 
8771.50 3.6360e-17 
8773.00 3.8660e-17 
8774.50 4.0346e-17 
8776.00 3.7873e-17 
8777.50 3.1938e-17 
8779.00 2.9915e-17 
8780.50 3.0350e-17 
8782.00 4.0043e-17 
8783.50 4.2720e-17 
8785.00 4.2348e-17 
8786.50 4.0233e-17 
8788.00 3.9496e-17 
8789.50 3.8263e-17 
8791.00 3.6121e-17 
8792.50 3.3075e-17 
8794.00 3.2811e-17 
8795.50 3.9548e-17 
8797.00 4.2492e-17 
8798.50 4.0530e-17 
8800.00 3.7954e-17 
8801.50 3.8181e-17 
8803.00 3.8402e-17 
8804.50 3.8244e-17 
8806.00 3.6882e-17 
8807.50 3.8660e-17 
8809.00 3.9632e-17 
8810.50 3.6465e-17 
8812.00 3.6553e-17 
8813.50 3.5789e-17 
8815.00 3.4803e-17 
8816.50 3.3878e-17 
8818.00 3.6969e-17 
8819.50 3.5973e-17 
8821.00 3.3461e-17 
8822.50 3.5452e-17 
8824.00 4.0739e-17 
8825.50 4.2179e-17 
8827.00 4.0878e-17 
8828.50 3.2891e-17 
8830.00 3.1307e-17 
8831.50 2.9697e-17 
8833.00 2.7876e-17 
8834.50 4.2790e-17 
8836.00 3.8031e-17 
8837.50 3.1955e-17 
8839.00 2.5485e-17 
8840.50 3.1950e-17 
8842.00 3.5289e-17 
8843.50 3.7066e-17 
8845.00 3.4306e-17 
8846.50 3.4077e-17 
8848.00 3.1775e-17 
8849.50 2.8965e-17 
8851.00 3.0266e-17 
8852.50 3.3189e-17 
8854.00 3.2824e-17 
8855.50 3.0100e-17 
8857.00 3.1556e-17 
8858.50 3.2877e-17 
8860.00 3.3054e-17 
8861.50 3.1571e-17 
8863.00 2.9435e-17 
8864.50 3.1458e-17 
8866.00 3.4134e-17 
8867.50 3.7908e-17 
8869.00 2.6925e-17 
8870.50 2.7908e-17 
8872.00 3.1632e-17 
8873.50 3.3556e-17 
8875.00 3.2754e-17 
8876.50 3.3258e-17 
8878.00 3.4521e-17 
8879.50 3.6375e-17 
8881.00 3.4550e-17 
8882.50 3.4743e-17 
8884.00 3.7384e-17 
8885.50 3.3564e-17 
8887.00 2.8285e-17 
8888.50 2.4754e-17 
8890.00 2.5694e-17 
8891.50 3.6134e-17 
8893.00 3.6602e-17 
8894.50 3.4542e-17 
8896.00 3.1071e-17 
8897.50 3.3517e-17 
8899.00 3.5562e-17 
8900.50 3.7547e-17 
8902.00 3.7946e-17 
8903.50 3.7881e-17 
8905.00 3.6925e-17 
8906.50 3.4554e-17 
8908.00 3.5569e-17 
8909.50 3.6023e-17 
8911.00 3.6194e-17 
8912.50 3.5613e-17 
8914.00 3.3959e-17 
8915.50 3.3815e-17 
8917.00 3.4724e-17 
8918.50 4.2457e-17 
8920.00 3.8450e-17 
8921.50 3.4854e-17 
8923.00 3.1048e-17 
8924.50 4.2457e-17 
8926.00 4.1744e-17 
8927.50 3.9970e-17 
8929.00 3.6490e-17 
8930.50 3.4619e-17 
8932.00 3.4561e-17 
8933.50 3.4884e-17 
8935.00 3.5202e-17 
8936.50 3.3833e-17 
8938.00 3.3353e-17 
8939.50 3.3362e-17 
8941.00 3.5987e-17 
8942.50 3.1867e-17 
8944.00 2.9065e-17 
8945.50 2.8156e-17 
8947.00 2.9902e-17 
8948.50 3.1535e-17 
8950.00 3.3091e-17 
8951.50 3.4351e-17 
8953.00 3.4717e-17 
8954.50 3.6665e-17 
8956.00 3.9656e-17 
8957.50 4.3307e-17 
8959.00 3.7412e-17 
8960.50 3.1580e-17 
8962.00 2.4628e-17 
8963.50 3.2656e-17 
8965.00 3.2398e-17 
8966.50 3.1503e-17 
8968.00 3.4527e-17 
8969.50 3.4349e-17 
8971.00 3.4711e-17 
8972.50 3.5416e-17 
8974.00 3.5573e-17 
8975.50 3.5270e-17 
8977.00 3.5278e-17 
8978.50 3.5893e-17 
8980.00 3.3331e-17 
8981.50 3.2539e-17 
8983.00 3.2278e-17 
8984.50 3.3496e-17 
8986.00 3.6253e-17 
8987.50 3.6995e-17 
8989.00 3.6441e-17 
8990.50 2.8391e-17 
8992.00 2.9198e-17 
8993.50 3.0816e-17 
8995.00 3.4112e-17 
8996.50 3.6817e-17 
8998.00 3.9457e-17 
8999.50 4.2229e-17 
9001.00 4.4998e-17 
9002.50 4.0904e-17 
9004.00 3.5548e-17 
9005.50 2.7490e-17 
9007.00 3.5900e-17 
9008.50 3.6156e-17 
9010.00 3.5558e-17 
9011.50 3.4704e-17 
9013.00 3.7726e-17 
9014.50 3.7746e-17 
9016.00 3.6322e-17 
9017.50 3.0804e-17 
9019.00 3.0808e-17 
9020.50 3.1603e-17 
9022.00 3.4235e-17 
9023.50 3.3689e-17 
9025.00 3.1862e-17 
9026.50 2.9866e-17 
9028.00 2.9975e-17 
9029.50 3.2006e-17 
9031.00 3.2769e-17 
9032.50 3.2431e-17 
9034.00 3.5027e-17 
9035.50 3.7080e-17 
9037.00 3.8689e-17 
9038.50 3.8669e-17 
9040.00 3.6704e-17 
9041.50 3.6019e-17 
9043.00 3.5925e-17 
9044.50 3.8464e-17 
9046.00 3.9327e-17 
9047.50 3.9592e-17 
9049.00 3.8428e-17 
9050.50 3.6053e-17 
9052.00 3.5085e-17 
9053.50 3.4611e-17 
9055.00 3.7417e-17 
9056.50 3.7298e-17 
9058.00 3.7592e-17 
9059.50 3.8645e-17 
9061.00 3.6771e-17 
9062.50 3.5077e-17 
9064.00 3.3856e-17 
9065.50 3.7740e-17 
9067.00 4.0854e-17 
9068.50 4.1663e-17 
9070.00 4.0255e-17 
9071.50 3.7551e-17 
9073.00 3.7668e-17 
9074.50 3.8151e-17 
9076.00 3.8894e-17 
9077.50 3.7121e-17 
9079.00 3.7586e-17 
9080.50 3.9856e-17 
9082.00 3.9061e-17 
9083.50 3.7581e-17 
9085.00 3.6329e-17 
9086.50 3.6009e-17 
9088.00 3.7635e-17 
9089.50 3.8658e-17 
9091.00 3.9544e-17 
9092.50 3.8472e-17 
9094.00 4.1516e-17 
9095.50 4.3328e-17 
9097.00 4.0800e-17 
9098.50 3.8273e-17 
9100.00 3.8201e-17 
9101.50 3.9279e-17 
9103.00 4.0859e-17 
9104.50 4.1469e-17 
9106.00 4.1363e-17 
9107.50 3.9123e-17 
9109.00 4.0176e-17 
9110.50 4.0124e-17 
9112.00 3.9605e-17 
9113.50 3.8464e-17 
9115.00 4.0788e-17 
9116.50 4.1770e-17 
9118.00 3.9198e-17 
9119.50 4.1477e-17 
9121.00 4.0812e-17 
9122.50 3.8888e-17 
9124.00 3.8550e-17 
9125.50 4.0257e-17 
9127.00 4.1107e-17 
9128.50 3.9750e-17 
9130.00 4.2177e-17 
9131.50 4.2308e-17 
9133.00 4.1507e-17 
9134.50 3.9831e-17 
9136.00 3.9716e-17 
9137.50 3.9777e-17 
9139.00 4.0347e-17 
9140.50 4.0624e-17 
9142.00 4.0622e-17 
9143.50 4.0488e-17 
9145.00 4.1436e-17 
9146.50 4.2356e-17 
9148.00 4.2882e-17 
9149.50 4.2139e-17 
9151.00 4.1223e-17 
9152.50 4.1122e-17 
9154.00 4.1461e-17 
9155.50 3.7021e-17 
9157.00 3.8992e-17 
9158.50 4.1195e-17 
9160.00 4.3465e-17 
9161.50 4.2819e-17 
9163.00 4.3239e-17 
9164.50 4.4585e-17 
9166.00 4.8759e-17 
9167.50 4.4672e-17 
9169.00 4.0764e-17 
9170.50 4.3418e-17 
9172.00 4.4873e-17 
9173.50 4.5421e-17 
9175.00 4.5215e-17 
9176.50 4.3868e-17 
9178.00 4.2913e-17 
9179.50 4.2374e-17 
9181.00 4.7132e-17 
9182.50 4.6231e-17 
9184.00 4.5441e-17 
9185.50 4.4472e-17 
9187.00 4.4844e-17 
9188.50 4.5055e-17 
9190.00 4.5232e-17 
9191.50 4.4556e-17 
9193.00 4.4466e-17 
9194.50 4.4627e-17 
9196.00 4.5560e-17 
9197.50 4.2695e-17 
9199.00 4.2112e-17 
9200.50 4.2503e-17 
9202.00 4.6548e-17 
9203.50 4.5688e-17 
9205.00 4.4487e-17 
9206.50 4.2415e-17 
9208.00 4.4641e-17 
9209.50 4.5029e-17 
9211.00 4.3899e-17 
9212.50 4.3529e-17 
9214.00 4.4795e-17 
9215.50 4.6153e-17 
9217.00 4.4670e-17 
9218.50 4.0834e-17 
9220.00 4.0283e-17 
9221.50 4.5475e-17 
9223.00 4.2851e-17 
9224.50 4.1943e-17 
9226.00 4.1471e-17 
9227.50 4.6606e-17 
9229.00 4.5673e-17 
9230.50 4.4473e-17 
9232.00 4.2109e-17 
9233.50 4.3045e-17 
9235.00 4.3591e-17 
9236.50 4.4032e-17 
9238.00 4.1148e-17 
9239.50 4.0205e-17 
9241.00 3.9831e-17 
9242.50 4.4287e-17 
9244.00 4.2396e-17 
9245.50 4.1115e-17 
9247.00 4.0336e-17 
9248.50 4.0143e-17 
9250.00 3.9811e-17 
9251.50 3.9351e-17 
9253.00 4.0147e-17 
9254.50 4.1828e-17 
9256.00 4.3081e-17 
9257.50 4.2092e-17 
9259.00 4.1736e-17 
9260.50 4.1375e-17 
9262.00 4.0836e-17 
9263.50 4.0100e-17 
9265.00 4.0434e-17 
9266.50 4.1052e-17 
9268.00 4.3097e-17 
9269.50 4.1071e-17 
9271.00 4.0167e-17 
9272.50 4.2670e-17 
9274.00 4.1674e-17 
9275.50 3.9955e-17 
9277.00 3.7028e-17 
9278.50 3.7834e-17 
9280.00 4.0549e-17 
9281.50 4.3280e-17 
9283.00 3.8691e-17 
9284.50 4.1572e-17 
9286.00 4.3725e-17 
9287.50 4.5388e-17 
9289.00 4.4632e-17 
9290.50 4.4778e-17 
9292.00 4.5484e-17 
9293.50 4.6637e-17 
9295.00 4.3268e-17 
9296.50 4.0166e-17 
9298.00 4.7480e-17 
9299.50 4.6940e-17 
9301.00 4.6814e-17 
9302.50 4.7493e-17 
9304.00 5.2519e-17 
9305.50 5.3285e-17 
9307.00 5.2117e-17 
9308.50 4.6712e-17 
9310.00 5.2589e-17 
9311.50 5.8846e-17 
9313.00 5.6031e-17 
9314.50 5.2066e-17 
9316.00 4.9609e-17 
9317.50 4.8829e-17 
9319.00 5.0059e-17 
9320.50 5.8079e-17 
9322.00 7.2583e-17 
9323.50 5.3491e-17 
9325.00 5.5392e-17 
9326.50 5.9759e-17 
9328.00 6.7721e-17 
9329.50 6.4383e-17 
9331.00 6.3462e-17 
9332.50 6.8274e-17 
9334.00 6.4035e-17 
9335.50 6.3935e-17 
9337.00 6.6613e-17 
9338.50 6.6321e-17 
9340.00 6.7004e-17 
9341.50 6.7946e-17 
9343.00 7.1783e-17 
9344.50 7.0361e-17 
9346.00 6.9278e-17 
9347.50 6.8801e-17 
9349.00 6.9008e-17 
9350.50 6.8658e-17 
9352.00 6.7564e-17 
9353.50 6.7623e-17 
9355.00 7.0197e-17 
9356.50 7.3877e-17 
9358.00 8.0050e-17 
9359.50 7.3414e-17 
9361.00 6.7502e-17 
9362.50 6.6644e-17 
9364.00 6.6584e-17 
9365.50 6.7824e-17 
9367.00 7.2157e-17 
9368.50 7.2082e-17 
9370.00 6.7595e-17 
9371.50 5.9299e-17 
9373.00 7.9952e-17 
9374.50 8.2217e-17 
9376.00 8.0767e-17 
9377.50 3.2463e-17 
9379.00 3.0695e-17 
9380.50 3.5211e-17 
9382.00 6.6482e-17 
9383.50 5.6800e-17 
9385.00 5.3741e-17 
9386.50 5.5907e-17 
9388.00 5.5832e-17 
9389.50 5.5989e-17 
9391.00 5.6258e-17 
9392.50 5.3322e-17 
9394.00 5.1168e-17 
9395.50 4.9426e-17 
9397.00 5.2019e-17 
9398.50 5.2105e-17 
9400.00 5.1703e-17 
9401.50 4.9635e-17 
9403.00 5.3800e-17 
9404.50 5.4391e-17 
9406.00 5.2223e-17 
9407.50 4.5737e-17 
9409.00 4.7409e-17 
9410.50 5.1534e-17 
9412.00 5.0739e-17 
9413.50 4.7527e-17 
9415.00 4.4858e-17 
9416.50 4.8931e-17 
9418.00 4.8398e-17 
9419.50 4.6852e-17 
9421.00 4.1227e-17 
9422.50 4.2963e-17 
9424.00 4.2778e-17 
9425.50 4.0754e-17 
9427.00 3.7994e-17 
9428.50 3.9218e-17 
9430.00 4.1919e-17 
9431.50 4.3495e-17 
9433.00 4.1416e-17 
9434.50 3.9340e-17 
9436.00 4.1593e-17 
9437.50 5.2460e-17 
9439.00 6.1658e-17 
9440.50 7.2423e-17 
9442.00 4.7113e-17 
9443.50 3.2968e-17 
9445.00 2.2728e-17 
9446.50 3.9358e-17 
9448.00 4.2065e-17 
9449.50 3.9567e-17 
9451.00 4.1216e-17 
9452.50 4.1754e-17 
9454.00 4.2196e-17 
9455.50 4.6017e-17 
9457.00 4.7973e-17 
9458.50 4.9144e-17 
9460.00 4.5169e-17 
9461.50 3.9100e-17 
9463.00 3.7055e-17 
9464.50 4.2474e-17 
9466.00 3.9083e-17 
9467.50 3.8210e-17 
9469.00 3.9014e-17 
9470.50 4.1678e-17 
9472.00 4.1791e-17 
9473.50 4.1108e-17 
9475.00 4.1633e-17 
9476.50 4.5694e-17 
9478.00 5.0125e-17 
9479.50 4.4170e-17 
9481.00 4.6103e-17 
9482.50 4.7720e-17 
9484.00 4.8559e-17 
9485.50 4.3185e-17 
9487.00 3.9661e-17 
9488.50 3.7027e-17 
9490.00 3.9532e-17 
9491.50 4.0521e-17 
9493.00 4.0761e-17 
9494.50 3.9690e-17 
9496.00 3.9066e-17 
9497.50 3.8382e-17 
9499.00 4.0339e-17 
9500.50 4.2826e-17 
9502.00 4.5620e-17 
9503.50 4.1776e-17 
9505.00 3.5662e-17 
9506.50 3.0720e-17 
9508.00 3.6108e-17 
9509.50 3.9193e-17 
9511.00 4.0548e-17 
9512.50 3.7192e-17 
9514.00 3.8357e-17 
9515.50 3.9598e-17 
9517.00 4.1974e-17 
9518.50 4.2695e-17 
9520.00 3.7307e-17 
9521.50 2.4819e-17 
9523.00 2.4117e-17 
9524.50 3.0335e-17 
9526.00 4.0433e-17 
9527.50 3.8061e-17 
9529.00 3.8830e-17 
9530.50 3.9964e-17 
9532.00 3.9851e-17 
9533.50 4.0766e-17 
9535.00 4.1567e-17 
9536.50 4.1665e-17 
9538.00 3.9742e-17 
9539.50 3.8116e-17 
9541.00 3.5819e-17 
9542.50 3.5701e-17 
9544.00 3.6737e-17 
9545.50 4.0777e-17 
9547.00 3.6931e-17 
9548.50 3.5779e-17 
9550.00 3.6119e-17 
9551.50 4.1995e-17 
9553.00 4.0983e-17 
9554.50 3.6660e-17 
9556.00 2.5750e-17 
9557.50 2.9221e-17 
9559.00 3.6100e-17 
9560.50 3.7302e-17 
9562.00 3.5730e-17 
9563.50 3.4049e-17 
9565.00 4.0733e-17 
9566.50 4.3519e-17 
9568.00 4.4012e-17 
9569.50 2.1991e-17 
9571.00 2.4671e-17 
9572.50 2.7957e-17 
9574.00 3.7662e-17 
9575.50 3.7139e-17 
9577.00 3.6163e-17 
9578.50 3.3259e-17 
9580.00 3.8816e-17 
9581.50 4.0082e-17 
9583.00 3.7731e-17 
9584.50 3.3861e-17 
9586.00 3.2887e-17 
9587.50 3.3049e-17 
9589.00 3.4965e-17 
9590.50 3.5364e-17 
9592.00 3.5436e-17 
9593.50 3.3771e-17 
9595.00 3.3422e-17 
9596.50 3.3204e-17 
9598.00 3.3738e-17 
9599.50 3.4031e-17 
9601.00 3.4324e-17 
9602.50 3.5004e-17 
9604.00 3.5219e-17 
9605.50 3.5310e-17 
9607.00 3.3693e-17 
9608.50 3.1305e-17 
9610.00 3.0110e-17 
9611.50 3.4496e-17 
9613.00 3.2626e-17 
9614.50 3.1324e-17 
9616.00 3.0143e-17 
9617.50 3.2610e-17 
9619.00 3.3431e-17 
9620.50 3.2099e-17 
9622.00 3.2258e-17 
9623.50 3.2849e-17 
9625.00 3.4451e-17 
9626.50 3.4068e-17 
9628.00 3.3631e-17 
9629.50 3.2859e-17 
9631.00 3.4150e-17 
9632.50 3.5358e-17 
9634.00 3.7158e-17 
9635.50 3.5215e-17 
9637.00 3.5293e-17 
9638.50 3.5944e-17 
9640.00 3.4005e-17 
9641.50 3.2383e-17 
9643.00 3.0436e-17 
9644.50 2.9224e-17 
9646.00 2.9709e-17 
9647.50 3.0366e-17 
9649.00 3.5113e-17 
9650.50 3.3915e-17 
9652.00 3.2585e-17 
9653.50 3.1715e-17 
9655.00 3.2749e-17 
9656.50 3.3737e-17 
9658.00 3.5303e-17 
9659.50 3.5375e-17 
9661.00 3.5350e-17 
9662.50 3.4522e-17 
9664.00 3.3900e-17 
9665.50 3.3666e-17 
9667.00 3.4957e-17 
9668.50 3.4894e-17 
9670.00 3.4502e-17 
9671.50 3.2487e-17 
9673.00 3.1610e-17 
9674.50 3.0633e-17 
9676.00 2.8233e-17 
9677.50 2.9155e-17 
9679.00 2.9911e-17 
9680.50 3.1239e-17 
9682.00 2.9358e-17 
9683.50 2.8224e-17 
9685.00 2.6886e-17 
9686.50 3.1126e-17 
9688.00 3.2365e-17 
9689.50 3.1884e-17 
9691.00 2.7044e-17 
9692.50 2.5685e-17 
9694.00 2.5745e-17 
9695.50 3.0589e-17 
9697.00 3.2735e-17 
9698.50 3.4810e-17 
9700.00 3.0497e-17 
9701.50 2.8562e-17 
9703.00 2.6549e-17 
9704.50 2.6580e-17 
9706.00 2.9140e-17 
9707.50 3.3751e-17 
9709.00 3.4499e-17 
9710.50 3.2334e-17 
9712.00 2.8533e-17 
9713.50 2.8101e-17 
9715.00 2.7079e-17 
9716.50 2.5585e-17 
9718.00 3.7523e-17 
9719.50 3.2907e-17 
9721.00 2.4330e-17 
9722.50 1.7695e-17 
9724.00 2.3323e-17 
9725.50 3.1732e-17 
9727.00 3.2822e-17 
9728.50 3.1270e-17 
9730.00 2.9180e-17 
9731.50 3.1790e-17 
9733.00 3.2907e-17 
9734.50 3.4082e-17 
9736.00 2.6285e-17 
9737.50 2.4099e-17 
9739.00 2.1964e-17 
9740.50 3.7566e-17 
9742.00 3.6412e-17 
9743.50 3.4516e-17 
9745.00 3.2258e-17 
9746.50 2.8365e-17 
9748.00 2.4215e-17 
9749.50 2.6248e-17 
9751.00 3.0519e-17 
9752.50 3.4990e-17 
9754.00 2.8954e-17 
9755.50 2.8556e-17 
9757.00 2.8210e-17 
9758.50 2.5589e-17 
9760.00 2.8225e-17 
9761.50 3.0899e-17 
9763.00 3.0910e-17 
9764.50 2.9050e-17 
9766.00 2.7196e-17 
9767.50 3.5305e-17 
9769.00 3.4622e-17 
9770.50 3.3940e-17 
9772.00 3.3166e-17 
9773.50 3.2728e-17 
9775.00 3.2296e-17 
9776.50 3.2151e-17 
9778.00 3.2538e-17 
9779.50 3.2925e-17 
9781.00 3.3623e-17 
9782.50 3.4620e-17 
9784.00 3.5627e-17 
9785.50 3.0666e-17 
9787.00 3.4149e-17 
9788.50 3.7759e-17 
9790.00 4.4622e-17 
9791.50 4.1599e-17 
9793.00 3.8383e-17 
9794.50 3.0313e-17 
9796.00 3.4558e-17 
9797.50 3.9258e-17 
9799.00 2.6513e-17 
9800.50 2.4469e-17 
9802.00 2.2520e-17 
9803.50 2.6735e-17 
9805.00 2.7774e-17 
9806.50 2.8809e-17 
9808.00 3.1804e-17 
9809.50 3.4388e-17 
9811.00 3.7350e-17 
9812.50 3.0438e-17 
9814.00 2.8597e-17 
9815.50 2.6748e-17 
9817.00 2.9818e-17 
9818.50 3.0955e-17 
9820.00 3.2192e-17 
9821.50 3.0830e-17 
9823.00 3.3143e-17 
9824.50 3.6609e-17 
9826.00 3.9414e-17 
9827.50 3.8236e-17 
9829.00 3.5975e-17 
9830.50 3.2886e-17 
9832.00 3.2932e-17 
9833.50 3.3666e-17 
9835.00 3.6249e-17 
9836.50 3.7470e-17 
9838.00 3.8941e-17 
9839.50 3.5484e-17 
9841.00 3.4709e-17 
9842.50 3.4400e-17 
9844.00 3.6839e-17 
9845.50 3.7511e-17 
9847.00 3.7860e-17 
9848.50 3.4106e-17 
9850.00 3.1755e-17 
9851.50 2.8267e-17 
9853.00 2.8185e-17 
9854.50 2.9295e-17 
9856.00 3.2396e-17 
9857.50 3.4380e-17 
9859.00 3.4205e-17 
9860.50 3.1620e-17 
9862.00 2.9173e-17 
9863.50 3.0686e-17 
9865.00 3.9693e-17 
9866.50 3.2081e-17 
9868.00 3.1004e-17 
9869.50 4.0782e-17 
9871.00 3.4881e-17 
9872.50 2.8358e-17 
9874.00 8.5154e-18 
9875.50 2.4089e-17 
9877.00 3.2840e-17 
9878.50 3.2239e-17 
9880.00 3.5002e-17 
9881.50 3.6658e-17 
9883.00 3.5141e-17 
9884.50 3.3453e-17 
9886.00 3.2252e-17 
9887.50 3.3270e-17 
9889.00 3.3675e-17 
9890.50 3.4096e-17 
9892.00 3.8047e-17 
9893.50 3.5382e-17 
9895.00 3.2710e-17 
9896.50 1.8693e-17 
9898.00 1.8343e-17 
9899.50 1.8266e-17 
9901.00 2.9169e-17 
9902.50 2.9457e-17 
9904.00 2.8946e-17 
9905.50 3.4088e-17 
9907.00 3.3078e-17 
9908.50 3.0531e-17 
9910.00 3.8625e-17 
9911.50 4.0462e-17 
9913.00 4.1479e-17 
9914.50 3.2259e-17 
9916.00 3.1004e-17 
9917.50 3.2981e-17 
9919.00 3.4783e-17 
9920.50 3.4115e-17 
9922.00 3.0522e-17 
9923.50 3.0911e-17 
9925.00 3.1522e-17 
9926.50 3.3346e-17 
9928.00 3.3314e-17 
9929.50 3.3360e-17 
9931.00 3.3690e-17 
9932.50 3.1637e-17 
9934.00 3.0347e-17 
9935.50 2.9627e-17 
9937.00 3.2062e-17 
9938.50 3.3756e-17 
9940.00 3.2791e-17 
9941.50 3.2242e-17 
9943.00 3.1778e-17 
9944.50 4.1430e-17 
9946.00 3.5823e-17 
9947.50 2.9650e-17 
9949.00 1.9690e-17 
9950.50 2.3272e-17 
9952.00 2.8936e-17 
9953.50 4.2013e-17 
9955.00 4.3289e-17 
9956.50 4.2853e-17 
9958.00 3.5570e-17 
9959.50 3.9109e-17 
9961.00 5.0153e-17 
9962.50 2.4571e-17 
9964.00 1.8543e-17 
9965.50 2.2103e-17 
9967.00 3.1439e-17 
9968.50 3.4471e-17 
9970.00 3.1969e-17 
9971.50 4.1414e-17 
9973.00 4.5179e-17 
9974.50 3.7920e-17 
9976.00 3.2651e-17 
9977.50 2.9529e-17 
9979.00 3.5239e-17 
9980.50 3.5372e-17 
9982.00 3.5469e-17 
9983.50 2.6806e-17 
9985.00 2.8997e-17 
9986.50 3.1450e-17 
9988.00 3.4690e-17 
9989.50 3.4359e-17 
9991.00 3.3558e-17 
9992.50 2.8579e-17 
9994.00 2.7058e-17 
9995.50 2.5516e-17 
9997.00 2.8187e-17 
9998.50 2.9428e-17 
10000.0 3.1021e-17 
10001.5 2.9714e-17 
10003.0 2.8992e-17 
10004.5 2.8014e-17 
10006.0 2.7341e-17 
10007.5 2.8512e-17 
10009.0 3.9061e-17 
10010.5 3.7837e-17 
10012.0 3.4822e-17 
10013.5 -5.1078e-18
10015.0 7.0987e-18 
10016.5 1.8536e-17 
10018.0 3.2711e-17 
10019.5 3.3646e-17 
10021.0 3.4397e-17 
10022.5 3.5258e-17 
10024.0 3.4569e-17 
10025.5 3.3192e-17 
10027.0 2.4773e-17 
10028.5 2.5521e-17 
10030.0 3.2048e-17 
10031.5 3.0113e-17 
10033.0 2.9053e-17 
10034.5 2.7479e-17 
10036.0 2.7433e-17 
10037.5 2.7409e-17 
10039.0 2.7403e-17 
10040.5 3.1069e-17 
10042.0 3.4133e-17 
10043.5 4.4972e-17 
10045.0 3.4649e-17 
10046.5 2.4275e-17 
10048.0 2.7057e-17 
10049.5 2.9802e-17 
10051.0 3.3530e-17 
10052.5 2.9090e-17 
10054.0 3.0879e-17 
10055.5 3.5799e-17 
10057.0 3.0219e-17 
10058.5 3.3518e-17 
10060.0 4.8931e-17 
10061.5 3.0393e-17 
10063.0 2.0010e-17 
10064.5 7.3008e-18 
10066.0 2.0776e-17 
10067.5 2.9321e-17 
10069.0 2.5852e-17 
10070.5 3.1424e-17 
10072.0 3.6590e-17 
10073.5 3.6673e-17 
10075.0 3.3347e-17 
10076.5 2.8768e-17 
10078.0 3.5124e-17 
10079.5 3.7967e-17 
10081.0 4.1895e-17 
10082.5 2.1542e-17 
10084.0 1.8525e-17 
10085.5 2.7291e-17 
10087.0 3.4720e-17 
10088.5 3.7221e-17 
10090.0 3.1898e-17 
10091.5 2.6346e-17 
10093.0 2.2565e-17 
10094.5 2.5915e-17 
10096.0 3.1360e-17 
10097.5 3.6994e-17 
10099.0 2.6687e-17 
10100.5 2.6272e-17 
10102.0 2.6674e-17 
10103.5 2.7923e-17 
10105.0 2.7633e-17 
10106.5 2.6333e-17 
10108.0 2.6753e-17 
10109.5 2.7793e-17 
10111.0 3.1719e-17 
10112.5 3.0703e-17 
10114.0 3.0173e-17 
10115.5 3.0811e-17 
10117.0 3.0467e-17 
10118.5 3.0159e-17 
10120.0 3.7046e-17 
10121.5 4.0529e-17 
10123.0 4.5097e-17 
10124.5 3.1211e-17 
10126.0 2.1029e-17 
10127.5 3.4054e-18 
10129.0 1.8696e-17 
10130.5 2.5438e-17 
10132.0 3.2983e-17 
10133.5 2.8124e-17 
10135.0 2.5395e-17 
10136.5 2.4518e-17 
10138.0 2.9652e-17 
10139.5 3.4099e-17 
10141.0 3.1347e-17 
10142.5 2.8326e-17 
10144.0 2.4280e-17 
10145.5 1.6758e-17 
10147.0 1.7896e-17 
10148.5 2.3070e-17 
10150.0 3.4037e-17 
10151.5 3.6021e-17 
10153.0 2.9188e-17 
10154.5 2.8527e-17 
10156.0 2.8984e-17 
10157.5 3.9786e-17 
10159.0 3.0703e-17 
10160.5 2.2138e-17 
10162.0 1.7898e-17 
10163.5 2.3742e-17 
10165.0 3.3026e-17 
10166.5 2.4531e-17 
10168.0 3.0896e-17 
10169.5 5.1797e-17 
10171.0 2.3819e-17 
10172.5 1.1821e-17 
10174.0 7.4705e-18 
10175.5 1.8767e-17 
10177.0 2.6545e-17 
10178.5 2.4507e-17 
10180.0 2.1331e-17 
10181.5 1.7675e-17 
10183.0 3.5519e-17 
10184.5 3.8432e-17 
10186.0 4.0231e-17 
10187.5 3.8321e-17 
10189.0 3.4800e-17 
10190.5 2.3596e-17 
10192.0 1.5649e-17 
10193.5 1.2623e-17 
10195.0 2.6686e-17 
10196.5 2.1172e-17 
10198.0 1.6020e-17 
10199.5 2.8095e-17 
