Wavelength (Angstroms) Flux (erg/s/cm2/A)
# start
3400.00 0
3401.50 0
3403.00 0
3404.50 0
3406.00 0
3407.50 0
3409.00 0
3410.50 0
3412.00 0
3413.50 0
3415.00 0
3416.50 0
3418.00 0
3419.50 0
3421.00 0
3422.50 0
3424.00 0
3425.50 0
3427.00 0
3428.50 0
3430.00 0
3431.50 0
3433.00 0
3434.50 0
3436.00 0
3437.50 0
3439.00 0
3440.50 0
3442.00 0
3443.50 0
3445.00 0
3446.50 0
3448.00 0
3449.50 0
3451.00 0
3452.50 0
3454.00 0
3455.50 0
3457.00 0
3458.50 0
3460.00 0
3461.50 0
3463.00 0
3464.50 0
3466.00 0
3467.50 0
3469.00 0
3470.50 0
3472.00 0
3473.50 0
3475.00 0
3476.50 0
3478.00 0
3479.50 0
3481.00 0
3482.50 0
3484.00 0
3485.50 0
3487.00 0
3488.50 0
3490.00 0
3491.50 0
3493.00 0
3494.50 0
3496.00 0
3497.50 0
3499.00 0
3500.50 0
3502.00 0
3503.50 0
3505.00 0
3506.50 0
3508.00 0
3509.50 0
3511.00 0
3512.50 0
3514.00 0
3515.50 0
3517.00 0
3518.50 0
3520.00 0
3521.50 0
3523.00 0
3524.50 0
3526.00 0
3527.50 0
3529.00 0
3530.50 0
3532.00 0
3533.50 0
3535.00 0
3536.50 0
3538.00 0
3539.50 0
3541.00 0
3542.50 0
3544.00 0
3545.50 0
3547.00 0
3548.50 0
3550.00 0
3551.50 0
3553.00 0
3554.50 0
3556.00 0
3557.50 0
3559.00 0
3560.50 0
3562.00 0
3563.50 0
3565.00 0
3566.50 0
3568.00 7.8052e-17 
3569.50 7.0714e-17 
3571.00 4.2936e-17 
3572.50 1.8926e-17 
3574.00 9.6771e-17 
3575.50 5.5075e-17 
3577.00 2.7118e-17 
3578.50 3.3093e-17 
3580.00 4.0274e-17 
3581.50 5.7869e-17 
3583.00 6.9657e-18 
3584.50 4.5577e-17 
3586.00 7.5491e-17 
3587.50 6.6485e-17 
3589.00 7.2356e-17 
3590.50 5.2458e-17 
3592.00 5.0174e-17 
3593.50 1.1045e-16 
3595.00 5.1386e-17 
3596.50 6.8334e-18 
3598.00 7.5440e-17 
3599.50 1.1099e-16 
3601.00 7.3433e-17 
3602.50 5.2862e-17 
3604.00 5.2861e-17 
3605.50 4.3062e-17 
3607.00 3.5427e-17 
3608.50 7.1868e-18 
3610.00 3.7709e-17 
3611.50 7.6898e-17 
3613.00 5.8095e-17 
3614.50 5.2123e-17 
3616.00 8.1571e-17 
3617.50 2.7543e-17 
3619.00 3.0600e-17 
3620.50 7.9367e-17 
3622.00 7.3577e-17 
3623.50 2.2882e-17 
3625.00 6.9868e-17 
3626.50 8.2861e-17 
3628.00 1.0148e-16 
3629.50 4.6926e-17 
3631.00 5.8856e-17 
3632.50 4.0376e-17 
3634.00 6.3686e-17 
3635.50 4.9633e-17 
3637.00 4.6986e-17 
3638.50 7.4599e-17 
3640.00 5.0917e-17 
3641.50 5.8229e-17 
3643.00 3.4311e-17 
3644.50 5.6695e-17 
3646.00 4.6935e-17 
3647.50 6.0884e-17 
3649.00 8.8170e-17 
3650.50 6.0433e-17 
3652.00 5.0353e-17 
3653.50 6.0844e-17 
3655.00 5.2354e-17 
3656.50 1.0407e-16 
3658.00 1.8119e-17 
3659.50 6.4783e-17 
3661.00 5.3985e-17 
3662.50 1.8126e-17 
3664.00 5.8676e-17 
3665.50 7.1622e-17 
3667.00 6.8379e-17 
3668.50 5.7060e-17 
3670.00 5.7995e-17 
3671.50 7.3626e-17 
3673.00 4.9473e-17 
3674.50 7.0930e-17 
3676.00 4.0185e-17 
3677.50 3.8164e-17 
3679.00 2.9891e-17 
3680.50 4.2751e-17 
3682.00 5.2308e-17 
3683.50 3.7258e-17 
3685.00 3.3989e-17 
3686.50 5.5633e-17 
3688.00 4.6947e-17 
3689.50 6.6682e-17 
3691.00 5.8803e-17 
3692.50 6.3296e-17 
3694.00 5.9309e-17 
3695.50 5.1140e-17 
3697.00 5.3069e-17 
3698.50 4.5959e-17 
3700.00 4.2768e-17 
3701.50 9.2307e-18 
3703.00 6.3079e-17 
3704.50 4.0862e-17 
3706.00 4.0410e-17 
3707.50 4.3118e-17 
3709.00 3.4518e-17 
3710.50 5.7105e-17 
3712.00 4.6500e-17 
3713.50 4.8080e-17 
3715.00 3.5538e-17 
3716.50 2.9337e-17 
3718.00 5.0617e-17 
3719.50 6.4194e-17 
3721.00 7.2061e-17 
3722.50 5.2689e-17 
3724.00 4.5282e-17 
3725.50 5.3004e-17 
3727.00 5.4616e-17 
3728.50 6.2678e-17 
3730.00 3.0051e-17 
3731.50 1.9895e-17 
3733.00 4.6728e-17 
3734.50 4.5630e-17 
3736.00 4.1131e-17 
3737.50 5.5364e-17 
3739.00 5.6385e-17 
3740.50 5.1311e-17 
3742.00 4.1310e-17 
3743.50 3.5932e-17 
3745.00 5.6074e-17 
3746.50 6.0498e-17 
3748.00 6.0801e-17 
3749.50 7.2842e-17 
3751.00 4.6786e-17 
3752.50 5.2251e-17 
3754.00 7.5497e-17 
3755.50 5.0846e-17 
3757.00 4.7182e-17 
3758.50 5.3244e-17 
3760.00 2.4970e-17 
3761.50 3.1208e-17 
3763.00 4.1267e-17 
3764.50 6.3641e-17 
3766.00 4.2807e-17 
3767.50 7.5657e-17 
3769.00 3.7860e-17 
3770.50 4.8146e-17 
3772.00 4.9588e-17 
3773.50 3.2038e-17 
3775.00 3.5048e-17 
3776.50 5.2649e-17 
3778.00 5.4910e-17 
3779.50 4.8873e-17 
3781.00 6.4410e-17 
3782.50 4.9133e-17 
3784.00 5.5792e-17 
3785.50 4.6140e-17 
3787.00 5.8095e-17 
3788.50 6.1227e-17 
3790.00 4.3120e-17 
3791.50 5.4895e-17 
3793.00 6.8025e-17 
3794.50 6.4043e-17 
3796.00 6.0571e-17 
3797.50 6.9664e-17 
3799.00 5.7938e-17 
3800.50 6.2869e-17 
3802.00 6.4826e-17 
3803.50 5.1257e-17 
3805.00 6.8362e-17 
3806.50 6.3507e-17 
3808.00 4.0928e-17 
3809.50 4.5960e-17 
3811.00 4.5881e-17 
3812.50 6.2362e-17 
3814.00 6.2241e-17 
3815.50 2.2482e-17 
3817.00 5.3767e-17 
3818.50 4.5399e-17 
3820.00 4.1417e-17 
3821.50 4.4416e-17 
3823.00 5.0305e-17 
3824.50 4.7865e-17 
3826.00 4.9451e-17 
3827.50 5.5214e-17 
3829.00 4.0425e-17 
3830.50 5.4080e-17 
3832.00 4.1503e-17 
3833.50 5.0932e-17 
3835.00 6.4733e-17 
3836.50 4.8637e-17 
3838.00 6.0904e-17 
3839.50 4.6340e-17 
3841.00 3.8111e-17 
3842.50 6.6901e-17 
3844.00 6.3137e-17 
3845.50 6.1558e-17 
3847.00 5.0011e-17 
3848.50 5.3095e-17 
3850.00 4.9401e-17 
3851.50 4.4483e-17 
3853.00 4.6764e-17 
3854.50 7.0340e-17 
3856.00 5.7980e-17 
3857.50 4.7083e-17 
3859.00 6.8931e-17 
3860.50 4.8180e-17 
3862.00 4.9730e-17 
3863.50 6.5365e-17 
3865.00 4.5021e-17 
3866.50 5.4879e-17 
3868.00 6.8496e-17 
3869.50 5.1366e-17 
3871.00 5.7396e-17 
3872.50 4.1298e-17 
3874.00 4.8955e-17 
3875.50 5.9602e-17 
3877.00 4.5645e-17 
3878.50 4.1025e-17 
3880.00 6.3913e-17 
3881.50 4.8876e-17 
3883.00 5.2934e-17 
3884.50 6.0450e-17 
3886.00 5.8243e-17 
3887.50 4.7167e-17 
3889.00 7.7439e-17 
3890.50 4.6394e-17 
3892.00 4.5464e-17 
3893.50 5.0771e-17 
3895.00 5.2823e-17 
3896.50 4.8535e-17 
3898.00 4.2780e-17 
3899.50 4.3315e-17 
3901.00 4.9108e-17 
3902.50 4.3157e-17 
3904.00 4.4231e-17 
3905.50 7.6849e-17 
3907.00 5.8401e-17 
3908.50 5.7191e-17 
3910.00 5.0578e-17 
3911.50 3.8905e-17 
3913.00 6.9747e-17 
3914.50 6.5319e-17 
3916.00 5.2758e-17 
3917.50 6.5755e-17 
3919.00 8.0072e-17 
3920.50 6.0086e-17 
3922.00 5.6681e-17 
3923.50 6.5407e-17 
3925.00 6.4647e-17 
3926.50 6.4091e-17 
3928.00 6.0688e-17 
3929.50 7.6505e-17 
3931.00 6.4694e-17 
3932.50 5.4172e-17 
3934.00 5.9024e-17 
3935.50 5.6655e-17 
3937.00 6.4875e-17 
3938.50 5.7844e-17 
3940.00 7.2690e-17 
3941.50 6.6253e-17 
3943.00 7.7824e-17 
3944.50 5.4933e-17 
3946.00 5.3416e-17 
3947.50 6.7894e-17 
3949.00 5.9751e-17 
3950.50 5.4313e-17 
3952.00 6.2593e-17 
3953.50 6.4017e-17 
3955.00 7.1297e-17 
3956.50 5.3470e-17 
3958.00 4.8727e-17 
3959.50 4.7929e-17 
3961.00 8.3843e-17 
3962.50 6.8259e-17 
3964.00 6.2231e-17 
3965.50 6.7636e-17 
3967.00 6.9748e-17 
3968.50 6.1291e-17 
3970.00 6.2042e-17 
3971.50 6.6690e-17 
3973.00 6.1255e-17 
3974.50 4.8544e-17 
3976.00 5.5018e-17 
3977.50 5.4174e-17 
3979.00 6.2063e-17 
3980.50 7.3911e-17 
3982.00 7.8088e-17 
3983.50 7.5597e-17 
3985.00 8.7219e-17 
3986.50 6.5350e-17 
3988.00 6.5546e-17 
3989.50 6.8068e-17 
3991.00 6.9068e-17 
3992.50 5.7934e-17 
3994.00 6.8550e-17 
3995.50 9.4360e-17 
3997.00 7.3966e-17 
3998.50 7.2384e-17 
4000.00 8.3152e-17 
4001.50 6.5476e-17 
4003.00 6.9879e-17 
4004.50 7.2577e-17 
4006.00 6.8217e-17 
4007.50 6.8852e-17 
4009.00 6.3105e-17 
4010.50 5.0256e-17 
4012.00 5.6976e-17 
4013.50 5.5470e-17 
4015.00 6.2754e-17 
4016.50 7.2507e-17 
4018.00 5.2457e-17 
4019.50 5.3054e-17 
4021.00 5.1284e-17 
4022.50 4.8954e-17 
4024.00 6.7720e-17 
4025.50 5.5522e-17 
4027.00 6.2048e-17 
4028.50 6.3454e-17 
4030.00 5.6417e-17 
4031.50 6.2777e-17 
4033.00 4.5899e-17 
4034.50 4.4989e-17 
4036.00 4.7453e-17 
4037.50 5.8173e-17 
4039.00 4.6829e-17 
4040.50 4.8641e-17 
4042.00 6.0956e-17 
4043.50 4.9740e-17 
4045.00 5.5177e-17 
4046.50 3.1647e-17 
4048.00 4.2954e-17 
4049.50 4.6675e-17 
4051.00 6.6705e-17 
4052.50 7.4279e-17 
4054.00 5.2521e-17 
4055.50 3.8192e-17 
4057.00 5.4289e-17 
4058.50 5.6078e-17 
4060.00 5.3079e-17 
4061.50 5.0684e-17 
4063.00 4.1030e-17 
4064.50 4.2957e-17 
4066.00 5.3003e-17 
4067.50 4.5213e-17 
4069.00 5.6568e-17 
4070.50 4.7632e-17 
4072.00 5.6804e-17 
4073.50 4.9736e-17 
4075.00 6.8380e-17 
4076.50 8.2197e-17 
4078.00 5.5339e-17 
4079.50 4.3498e-17 
4081.00 5.6896e-17 
4082.50 4.3540e-17 
4084.00 4.6272e-17 
4085.50 5.4967e-17 
4087.00 6.7532e-17 
4088.50 4.6585e-17 
4090.00 5.1308e-17 
4091.50 4.5414e-17 
4093.00 4.6005e-17 
4094.50 5.8000e-17 
4096.00 5.7125e-17 
4097.50 4.1912e-17 
4099.00 4.5923e-17 
4100.50 5.2542e-17 
4102.00 4.8627e-17 
4103.50 4.8244e-17 
4105.00 5.9397e-17 
4106.50 5.9370e-17 
4108.00 5.3276e-17 
4109.50 5.2802e-17 
4111.00 4.9434e-17 
4112.50 4.0126e-17 
4114.00 3.8798e-17 
4115.50 4.9335e-17 
4117.00 5.1452e-17 
4118.50 5.3591e-17 
4120.00 4.9797e-17 
4121.50 5.0540e-17 
4123.00 4.1219e-17 
4124.50 5.1977e-17 
4126.00 5.0109e-17 
4127.50 5.5776e-17 
4129.00 3.9973e-17 
4130.50 4.3094e-17 
4132.00 4.9856e-17 
4133.50 4.9825e-17 
4135.00 4.7529e-17 
4136.50 4.9511e-17 
4138.00 5.0119e-17 
4139.50 3.9915e-17 
4141.00 4.6619e-17 
4142.50 4.9264e-17 
4144.00 5.0961e-17 
4145.50 5.0654e-17 
4147.00 5.1541e-17 
4148.50 3.8395e-17 
4150.00 4.8312e-17 
4151.50 4.4776e-17 
4153.00 3.7467e-17 
4154.50 3.4042e-17 
4156.00 5.1399e-17 
4157.50 5.4005e-17 
4159.00 4.7601e-17 
4160.50 4.4898e-17 
4162.00 5.6444e-17 
4163.50 5.1591e-17 
4165.00 6.2029e-17 
4166.50 5.0527e-17 
4168.00 4.4546e-17 
4169.50 4.4673e-17 
4171.00 4.4108e-17 
4172.50 4.0613e-17 
4174.00 4.4859e-17 
4175.50 5.5064e-17 
4177.00 5.4155e-17 
4178.50 5.3589e-17 
4180.00 4.2158e-17 
4181.50 4.6029e-17 
4183.00 4.7789e-17 
4184.50 5.2280e-17 
4186.00 4.8592e-17 
4187.50 5.0839e-17 
4189.00 4.1189e-17 
4190.50 5.3087e-17 
4192.00 5.1542e-17 
4193.50 4.9202e-17 
4195.00 4.0017e-17 
4196.50 3.9248e-17 
4198.00 4.6551e-17 
4199.50 4.9132e-17 
4201.00 5.2113e-17 
4202.50 4.9796e-17 
4204.00 4.9939e-17 
4205.50 4.5316e-17 
4207.00 3.5772e-17 
4208.50 4.2493e-17 
4210.00 5.2036e-17 
4211.50 4.6630e-17 
4213.00 5.6542e-17 
4214.50 4.4441e-17 
4216.00 4.3359e-17 
4217.50 4.5063e-17 
4219.00 4.3150e-17 
4220.50 4.8810e-17 
4222.00 4.4577e-17 
4223.50 4.9704e-17 
4225.00 4.6595e-17 
4226.50 4.8245e-17 
4228.00 4.4172e-17 
4229.50 4.2210e-17 
4231.00 3.7964e-17 
4232.50 4.2343e-17 
4234.00 4.6836e-17 
4235.50 4.2842e-17 
4237.00 5.6261e-17 
4238.50 4.0857e-17 
4240.00 4.8781e-17 
4241.50 4.1908e-17 
4243.00 4.2476e-17 
4244.50 4.1023e-17 
4246.00 6.0785e-17 
4247.50 4.4052e-17 
4249.00 5.4129e-17 
4250.50 5.7504e-17 
4252.00 4.1059e-17 
4253.50 4.3416e-17 
4255.00 5.6294e-17 
4256.50 4.7834e-17 
4258.00 3.5357e-17 
4259.50 4.4390e-17 
4261.00 4.6131e-17 
4262.50 5.0987e-17 
4264.00 4.4008e-17 
4265.50 4.0196e-17 
4267.00 4.8521e-17 
4268.50 4.1102e-17 
4270.00 3.9736e-17 
4271.50 4.6835e-17 
4273.00 3.6731e-17 
4274.50 5.3629e-17 
4276.00 4.5457e-17 
4277.50 4.6988e-17 
4279.00 4.7180e-17 
4280.50 3.8675e-17 
4282.00 4.0668e-17 
4283.50 3.9960e-17 
4285.00 4.5752e-17 
4286.50 4.8207e-17 
4288.00 4.9400e-17 
4289.50 4.6475e-17 
4291.00 5.1718e-17 
4292.50 4.7599e-17 
4294.00 5.1559e-17 
4295.50 5.1122e-17 
4297.00 4.9926e-17 
4298.50 4.2285e-17 
4300.00 4.5822e-17 
4301.50 4.7309e-17 
4303.00 4.3655e-17 
4304.50 4.5734e-17 
4306.00 4.7907e-17 
4307.50 4.9203e-17 
4309.00 4.1440e-17 
4310.50 3.8981e-17 
4312.00 3.9104e-17 
4313.50 3.6104e-17 
4315.00 4.2249e-17 
4316.50 4.4331e-17 
4318.00 4.6882e-17 
4319.50 4.5144e-17 
4321.00 4.0189e-17 
4322.50 4.9750e-17 
4324.00 4.7252e-17 
4325.50 4.3134e-17 
4327.00 4.0255e-17 
4328.50 4.3285e-17 
4330.00 4.6059e-17 
4331.50 4.3028e-17 
4333.00 4.4914e-17 
4334.50 4.3456e-17 
4336.00 4.3438e-17 
4337.50 3.6202e-17 
4339.00 5.1359e-17 
4340.50 5.1240e-17 
4342.00 5.2213e-17 
4343.50 3.7961e-17 
4345.00 4.5331e-17 
4346.50 5.0541e-17 
4348.00 5.9408e-17 
4349.50 4.5277e-17 
4351.00 4.0552e-17 
4352.50 4.1092e-17 
4354.00 5.0700e-17 
4355.50 5.2220e-17 
4357.00 6.5693e-17 
4358.50 3.6729e-17 
4360.00 5.1562e-17 
4361.50 4.5439e-17 
4363.00 4.4754e-17 
4364.50 4.6740e-17 
4366.00 4.2115e-17 
4367.50 3.8000e-17 
4369.00 5.2418e-17 
4370.50 4.5373e-17 
4372.00 4.2955e-17 
4373.50 5.3218e-17 
4375.00 4.5358e-17 
4376.50 4.9070e-17 
4378.00 4.2161e-17 
4379.50 3.6554e-17 
4381.00 4.1846e-17 
4382.50 4.5862e-17 
4384.00 4.1747e-17 
4385.50 3.3686e-17 
4387.00 3.8079e-17 
4388.50 5.7914e-17 
4390.00 4.8602e-17 
4391.50 4.1314e-17 
4393.00 3.8051e-17 
4394.50 3.5647e-17 
4396.00 4.5138e-17 
4397.50 3.7845e-17 
4399.00 3.7805e-17 
4400.50 3.6697e-17 
4402.00 4.6060e-17 
4403.50 3.1361e-17 
4405.00 3.8085e-17 
4406.50 3.7962e-17 
4408.00 4.9460e-17 
4409.50 4.7629e-17 
4411.00 5.5191e-17 
4412.50 3.7202e-17 
4414.00 5.2850e-17 
4415.50 3.9866e-17 
4417.00 6.3573e-17 
4418.50 5.2976e-17 
4420.00 4.8426e-17 
4421.50 3.0510e-17 
4423.00 4.8155e-17 
4424.50 4.3982e-17 
4426.00 3.9133e-17 
4427.50 4.2830e-17 
4429.00 3.8584e-17 
4430.50 5.0161e-17 
4432.00 4.0236e-17 
4433.50 3.8735e-17 
4435.00 4.6642e-17 
4436.50 4.4166e-17 
4438.00 3.9934e-17 
4439.50 3.9278e-17 
4441.00 4.6801e-17 
4442.50 4.1166e-17 
4444.00 4.7284e-17 
4445.50 4.6271e-17 
4447.00 3.6595e-17 
4448.50 4.2931e-17 
4450.00 4.3010e-17 
4451.50 4.2592e-17 
4453.00 4.6597e-17 
4454.50 4.0830e-17 
4456.00 4.0623e-17 
4457.50 4.2821e-17 
4459.00 5.0146e-17 
4460.50 4.3933e-17 
4462.00 4.5187e-17 
4463.50 4.3855e-17 
4465.00 4.6393e-17 
4466.50 3.3957e-17 
4468.00 4.5445e-17 
4469.50 4.8861e-17 
4471.00 3.8941e-17 
4472.50 5.1491e-17 
4474.00 5.0677e-17 
4475.50 4.8929e-17 
4477.00 4.5020e-17 
4478.50 4.1553e-17 
4480.00 3.4878e-17 
4481.50 4.1125e-17 
4483.00 4.9389e-17 
4484.50 4.6927e-17 
4486.00 3.8644e-17 
4487.50 3.4705e-17 
4489.00 3.1961e-17 
4490.50 4.0287e-17 
4492.00 4.0621e-17 
4493.50 3.4797e-17 
4495.00 4.1069e-17 
4496.50 3.6983e-17 
4498.00 4.6900e-17 
4499.50 3.4336e-17 
4501.00 4.5698e-17 
4502.50 4.7755e-17 
4504.00 5.7990e-17 
4505.50 4.4252e-17 
4507.00 4.6705e-17 
4508.50 4.5624e-17 
4510.00 3.4662e-17 
4511.50 4.6692e-17 
4513.00 4.7240e-17 
4514.50 4.2724e-17 
4516.00 3.7757e-17 
4517.50 3.7289e-17 
4519.00 4.1760e-17 
4520.50 4.8818e-17 
4522.00 4.0721e-17 
4523.50 5.3063e-17 
4525.00 4.3692e-17 
4526.50 3.7555e-17 
4528.00 4.9354e-17 
4529.50 4.2812e-17 
4531.00 4.3639e-17 
4532.50 4.6814e-17 
4534.00 3.6945e-17 
4535.50 4.7161e-17 
4537.00 4.2200e-17 
4538.50 4.0889e-17 
4540.00 3.6318e-17 
4541.50 4.4370e-17 
4543.00 4.2068e-17 
4544.50 5.5991e-17 
4546.00 4.2455e-17 
4547.50 4.1076e-17 
4549.00 3.9202e-17 
4550.50 2.7075e-17 
4552.00 4.8103e-17 
4553.50 4.1721e-17 
4555.00 4.7213e-17 
4556.50 4.7021e-17 
4558.00 4.1318e-17 
4559.50 3.5260e-17 
4561.00 4.0616e-17 
4562.50 4.6947e-17 
4564.00 4.2114e-17 
4565.50 4.5723e-17 
4567.00 4.3495e-17 
4568.50 4.3594e-17 
4570.00 4.5821e-17 
4571.50 3.6804e-17 
4573.00 3.9815e-17 
4574.50 4.1617e-17 
4576.00 4.0263e-17 
4577.50 4.9286e-17 
4579.00 4.0347e-17 
4580.50 5.1702e-17 
4582.00 3.5507e-17 
4583.50 4.3584e-17 
4585.00 4.0885e-17 
4586.50 4.7684e-17 
4588.00 4.6257e-17 
4589.50 3.7890e-17 
4591.00 4.2372e-17 
4592.50 3.5104e-17 
4594.00 3.5996e-17 
4595.50 3.5279e-17 
4597.00 4.3095e-17 
4598.50 4.4792e-17 
4600.00 4.0846e-17 
4601.50 4.2345e-17 
4603.00 4.8026e-17 
4604.50 3.8654e-17 
4606.00 4.4638e-17 
4607.50 4.1916e-17 
4609.00 5.7134e-17 
4610.50 3.6710e-17 
4612.00 3.5648e-17 
4613.50 4.0480e-17 
4615.00 4.0635e-17 
4616.50 3.7457e-17 
4618.00 4.1688e-17 
4619.50 4.3678e-17 
4621.00 4.4697e-17 
4622.50 4.0495e-17 
4624.00 3.7070e-17 
4625.50 3.5619e-17 
4627.00 4.2991e-17 
4628.50 4.1313e-17 
4630.00 4.1148e-17 
4631.50 4.5076e-17 
4633.00 3.6827e-17 
4634.50 3.6881e-17 
4636.00 4.2313e-17 
4637.50 3.3869e-17 
4639.00 3.1741e-17 
4640.50 3.9537e-17 
4642.00 4.7447e-17 
4643.50 4.6026e-17 
4645.00 4.4598e-17 
4646.50 4.8147e-17 
4648.00 4.8278e-17 
4649.50 4.8153e-17 
4651.00 4.4076e-17 
4652.50 3.7648e-17 
4654.00 4.8130e-17 
4655.50 4.3476e-17 
4657.00 3.8137e-17 
4658.50 4.0588e-17 
4660.00 4.2977e-17 
4661.50 4.0255e-17 
4663.00 4.2882e-17 
4664.50 3.8733e-17 
4666.00 3.6594e-17 
4667.50 3.6650e-17 
4669.00 4.1780e-17 
4670.50 3.6122e-17 
4672.00 4.5837e-17 
4673.50 3.9111e-17 
4675.00 4.5395e-17 
4676.50 3.3813e-17 
4678.00 3.4468e-17 
4679.50 4.4704e-17 
4681.00 4.1720e-17 
4682.50 3.0770e-17 
4684.00 4.5678e-17 
4685.50 4.8023e-17 
4687.00 4.1349e-17 
4688.50 3.0147e-17 
4690.00 3.9385e-17 
4691.50 4.4829e-17 
4693.00 4.5936e-17 
4694.50 3.9021e-17 
4696.00 3.6309e-17 
4697.50 3.5933e-17 
4699.00 3.6178e-17 
4700.50 3.1637e-17 
4702.00 4.4792e-17 
4703.50 4.2766e-17 
4705.00 3.7051e-17 
4706.50 3.4649e-17 
4708.00 4.6744e-17 
4709.50 4.3661e-17 
4711.00 4.3302e-17 
4712.50 3.9005e-17 
4714.00 3.4403e-17 
4715.50 3.5347e-17 
4717.00 3.4341e-17 
4718.50 3.6079e-17 
4720.00 3.8504e-17 
4721.50 4.1488e-17 
4723.00 3.7396e-17 
4724.50 4.1128e-17 
4726.00 4.4970e-17 
4727.50 3.5848e-17 
4729.00 3.7722e-17 
4730.50 4.0631e-17 
4732.00 4.4514e-17 
4733.50 4.3157e-17 
4735.00 4.4550e-17 
4736.50 4.7484e-17 
4738.00 4.5156e-17 
4739.50 3.6354e-17 
4741.00 3.4617e-17 
4742.50 4.0412e-17 
4744.00 4.1803e-17 
4745.50 4.0524e-17 
4747.00 4.0129e-17 
4748.50 3.8910e-17 
4750.00 4.4014e-17 
4751.50 3.4653e-17 
4753.00 3.9337e-17 
4754.50 4.2616e-17 
4756.00 2.8597e-17 
4757.50 3.8818e-17 
4759.00 3.8512e-17 
4760.50 5.0306e-17 
4762.00 3.7602e-17 
4763.50 3.0366e-17 
4765.00 4.0388e-17 
4766.50 3.4491e-17 
4768.00 4.6821e-17 
4769.50 3.9430e-17 
4771.00 4.0474e-17 
4772.50 4.0068e-17 
4774.00 4.2130e-17 
4775.50 3.9072e-17 
4777.00 4.1448e-17 
4778.50 5.2835e-17 
4780.00 3.9728e-17 
4781.50 4.1895e-17 
4783.00 3.5549e-17 
4784.50 4.3766e-17 
4786.00 4.6189e-17 
4787.50 4.3064e-17 
4789.00 3.6728e-17 
4790.50 3.7164e-17 
4792.00 4.3498e-17 
4793.50 4.2907e-17 
4795.00 4.3539e-17 
4796.50 3.9688e-17 
4798.00 4.1472e-17 
4799.50 3.9689e-17 
4801.00 4.4218e-17 
4802.50 4.6266e-17 
4804.00 4.2126e-17 
4805.50 3.0961e-17 
4807.00 3.1416e-17 
4808.50 4.7088e-17 
4810.00 4.0892e-17 
4811.50 4.3175e-17 
4813.00 3.9365e-17 
4814.50 4.4054e-17 
4816.00 4.7973e-17 
4817.50 4.6185e-17 
4819.00 4.1959e-17 
4820.50 4.6044e-17 
4822.00 3.8797e-17 
4823.50 3.1644e-17 
4825.00 2.9144e-17 
4826.50 2.6607e-17 
4828.00 1.8733e-17 
4829.50 2.4027e-17 
4831.00 3.6105e-17 
4832.50 3.9657e-17 
4834.00 4.0250e-17 
4835.50 4.1554e-17 
4837.00 3.8976e-17 
4838.50 3.6954e-17 
4840.00 2.7728e-17 
4841.50 2.9954e-17 
4843.00 3.8617e-17 
4844.50 4.0034e-17 
4846.00 4.3228e-17 
4847.50 4.2985e-17 
4849.00 4.7650e-17 
4850.50 4.7892e-17 
4852.00 3.2274e-17 
4853.50 3.5861e-17 
4855.00 4.1798e-17 
4856.50 3.5222e-17 
4858.00 4.3488e-17 
4859.50 4.6351e-17 
4861.00 4.7636e-17 
4862.50 4.4539e-17 
4864.00 3.9339e-17 
4865.50 4.6739e-17 
4867.00 4.9020e-17 
4868.50 4.7471e-17 
4870.00 4.1593e-17 
4871.50 3.4087e-17 
4873.00 4.0458e-17 
4874.50 4.3879e-17 
4876.00 4.1640e-17 
4877.50 3.8418e-17 
4879.00 3.9859e-17 
4880.50 3.6862e-17 
4882.00 4.1849e-17 
4883.50 5.3215e-17 
4885.00 4.6915e-17 
4886.50 4.2370e-17 
4888.00 4.1869e-17 
4889.50 3.5058e-17 
4891.00 3.2547e-17 
4892.50 3.9586e-17 
4894.00 4.4031e-17 
4895.50 4.5628e-17 
4897.00 3.6329e-17 
4898.50 3.9346e-17 
4900.00 4.2798e-17 
4901.50 4.2066e-17 
4903.00 4.2805e-17 
4904.50 3.9959e-17 
4906.00 3.8512e-17 
4907.50 4.0849e-17 
4909.00 4.4027e-17 
4910.50 4.6040e-17 
4912.00 4.5011e-17 
4913.50 4.6584e-17 
4915.00 4.4990e-17 
4916.50 4.2152e-17 
4918.00 4.4100e-17 
4919.50 4.5397e-17 
4921.00 3.8827e-17 
4922.50 3.7315e-17 
4924.00 4.0477e-17 
4925.50 3.8956e-17 
4927.00 3.6650e-17 
4928.50 4.8962e-17 
4930.00 4.7907e-17 
4931.50 4.3141e-17 
4933.00 4.0377e-17 
4934.50 4.5764e-17 
4936.00 4.5195e-17 
4937.50 4.6344e-17 
4939.00 4.7676e-17 
4940.50 3.9653e-17 
4942.00 3.7762e-17 
4943.50 4.0326e-17 
4945.00 4.0787e-17 
4946.50 3.7577e-17 
4948.00 3.7915e-17 
4949.50 4.4591e-17 
4951.00 4.5211e-17 
4952.50 3.9467e-17 
4954.00 4.2347e-17 
4955.50 3.8115e-17 
4957.00 3.9419e-17 
4958.50 4.2143e-17 
4960.00 4.3268e-17 
4961.50 3.8956e-17 
4963.00 4.5184e-17 
4964.50 3.8938e-17 
4966.00 4.4875e-17 
4967.50 4.3455e-17 
4969.00 3.9965e-17 
4970.50 4.7473e-17 
4972.00 4.5742e-17 
4973.50 4.4350e-17 
4975.00 4.5215e-17 
4976.50 4.3375e-17 
4978.00 4.2168e-17 
4979.50 4.6326e-17 
4981.00 4.0716e-17 
4982.50 3.6404e-17 
4984.00 4.5465e-17 
4985.50 5.1437e-17 
4987.00 4.3369e-17 
4988.50 4.1445e-17 
4990.00 4.9215e-17 
4991.50 5.1570e-17 
4993.00 4.4259e-17 
4994.50 4.2876e-17 
4996.00 4.6192e-17 
4997.50 4.6414e-17 
4999.00 4.4262e-17 
5000.50 4.2049e-17 
5002.00 4.4514e-17 
5003.50 4.3936e-17 
5005.00 4.1827e-17 
5006.50 3.9782e-17 
5008.00 4.4770e-17 
5009.50 3.7533e-17 
5011.00 4.0865e-17 
5012.50 4.9886e-17 
5014.00 5.1263e-17 
5015.50 4.1450e-17 
5017.00 4.2495e-17 
5018.50 3.9336e-17 
5020.00 4.1407e-17 
5021.50 4.8698e-17 
5023.00 4.7737e-17 
5024.50 3.7314e-17 
5026.00 3.8638e-17 
5027.50 4.1600e-17 
5029.00 3.6247e-17 
5030.50 4.2768e-17 
5032.00 4.2300e-17 
5033.50 4.0055e-17 
5035.00 4.7633e-17 
5036.50 3.8766e-17 
5038.00 4.6181e-17 
5039.50 4.1665e-17 
5041.00 4.1240e-17 
5042.50 4.1201e-17 
5044.00 3.9016e-17 
5045.50 4.3486e-17 
5047.00 4.1185e-17 
5048.50 3.8317e-17 
5050.00 3.6481e-17 
5051.50 4.1402e-17 
5053.00 4.0805e-17 
5054.50 4.1204e-17 
5056.00 4.9734e-17 
5057.50 4.5415e-17 
5059.00 3.9158e-17 
5060.50 4.0515e-17 
5062.00 4.0270e-17 
5063.50 4.2414e-17 
5065.00 4.4317e-17 
5066.50 4.3621e-17 
5068.00 4.3936e-17 
5069.50 4.0128e-17 
5071.00 4.0037e-17 
5072.50 3.8631e-17 
5074.00 4.1130e-17 
5075.50 4.2192e-17 
5077.00 4.2270e-17 
5078.50 4.2743e-17 
5080.00 4.1020e-17 
5081.50 4.3055e-17 
5083.00 4.2903e-17 
5084.50 4.0915e-17 
5086.00 3.8690e-17 
5087.50 3.9208e-17 
5089.00 4.5494e-17 
5090.50 4.3611e-17 
5092.00 4.0702e-17 
5093.50 4.4433e-17 
5095.00 4.6212e-17 
5096.50 4.3386e-17 
5098.00 4.6373e-17 
5099.50 4.2759e-17 
5101.00 3.7460e-17 
5102.50 3.9993e-17 
5104.00 5.0609e-17 
5105.50 4.7258e-17 
5107.00 4.0202e-17 
5108.50 4.1164e-17 
5110.00 3.9654e-17 
5111.50 4.3975e-17 
5113.00 4.4775e-17 
5114.50 4.6042e-17 
5116.00 3.7056e-17 
5117.50 4.0303e-17 
5119.00 4.2580e-17 
5120.50 4.0701e-17 
5122.00 4.4691e-17 
5123.50 3.9175e-17 
5125.00 4.2627e-17 
5126.50 3.9751e-17 
5128.00 4.5811e-17 
5129.50 4.1019e-17 
5131.00 4.1143e-17 
5132.50 4.5772e-17 
5134.00 4.0208e-17 
5135.50 4.5843e-17 
5137.00 5.1238e-17 
5138.50 4.0246e-17 
5140.00 4.7152e-17 
5141.50 4.3057e-17 
5143.00 4.1824e-17 
5144.50 3.8107e-17 
5146.00 3.5916e-17 
5147.50 4.3044e-17 
5149.00 4.0923e-17 
5150.50 4.0709e-17 
5152.00 4.6944e-17 
5153.50 5.1785e-17 
5155.00 3.9020e-17 
5156.50 3.4563e-17 
5158.00 4.5515e-17 
5159.50 4.4115e-17 
5161.00 4.0745e-17 
5162.50 4.8127e-17 
5164.00 3.9228e-17 
5165.50 4.8603e-17 
5167.00 4.4258e-17 
5168.50 4.1799e-17 
5170.00 4.0143e-17 
5171.50 4.4077e-17 
5173.00 4.2601e-17 
5174.50 4.7022e-17 
5176.00 4.0040e-17 
5177.50 4.0608e-17 
5179.00 3.9243e-17 
5180.50 3.8718e-17 
5182.00 3.3702e-17 
5183.50 4.0314e-17 
5185.00 4.9851e-17 
5186.50 4.4013e-17 
5188.00 4.2722e-17 
5189.50 4.1778e-17 
5191.00 4.7407e-17 
5192.50 4.7071e-17 
5194.00 4.6804e-17 
5195.50 4.7731e-17 
5197.00 4.2355e-17 
5198.50 3.9089e-17 
5200.00 2.9755e-17 
5201.50 3.1128e-17 
5203.00 4.4574e-17 
5204.50 4.0059e-17 
5206.00 3.9890e-17 
5207.50 4.7351e-17 
5209.00 4.2471e-17 
5210.50 4.6715e-17 
5212.00 3.7893e-17 
5213.50 4.4968e-17 
5215.00 4.3584e-17 
5216.50 4.6428e-17 
5218.00 4.2810e-17 
5219.50 4.2557e-17 
5221.00 4.0035e-17 
5222.50 3.9992e-17 
5224.00 4.4534e-17 
5225.50 4.3637e-17 
5227.00 4.7998e-17 
5228.50 4.3413e-17 
5230.00 3.9912e-17 
5231.50 3.9714e-17 
5233.00 3.7196e-17 
5234.50 3.8092e-17 
5236.00 3.9757e-17 
5237.50 4.3545e-17 
5239.00 4.2478e-17 
5240.50 4.6113e-17 
5242.00 4.1488e-17 
5243.50 4.2582e-17 
5245.00 3.8806e-17 
5246.50 3.8409e-17 
5248.00 3.6489e-17 
5249.50 4.1040e-17 
5251.00 4.1610e-17 
5252.50 4.2308e-17 
5254.00 4.8011e-17 
5255.50 4.2302e-17 
5257.00 3.6106e-17 
5258.50 3.7172e-17 
5260.00 4.0999e-17 
5261.50 4.3858e-17 
5263.00 4.7175e-17 
5264.50 4.4867e-17 
5266.00 4.2880e-17 
5267.50 3.8060e-17 
5269.00 3.8634e-17 
5270.50 4.3646e-17 
5272.00 3.8748e-17 
5273.50 4.0591e-17 
5275.00 4.2447e-17 
5276.50 4.4253e-17 
5278.00 4.2226e-17 
5279.50 4.8594e-17 
5281.00 4.4147e-17 
5282.50 3.7975e-17 
5284.00 3.7730e-17 
5285.50 4.0646e-17 
5287.00 3.9288e-17 
5288.50 4.1995e-17 
5290.00 4.5638e-17 
5291.50 3.7216e-17 
5293.00 3.4913e-17 
5294.50 4.2947e-17 
5296.00 4.3115e-17 
5297.50 3.9898e-17 
5299.00 4.0923e-17 
5300.50 4.1680e-17 
5302.00 4.2195e-17 
5303.50 3.9382e-17 
5305.00 3.6194e-17 
5306.50 3.8743e-17 
5308.00 3.9431e-17 
5309.50 4.2754e-17 
5311.00 4.5395e-17 
5312.50 4.1995e-17 
5314.00 4.1555e-17 
5315.50 3.6865e-17 
5317.00 3.9996e-17 
5318.50 3.8664e-17 
5320.00 3.6859e-17 
5321.50 3.8882e-17 
5323.00 4.3342e-17 
5324.50 4.2762e-17 
5326.00 4.4343e-17 
5327.50 4.2135e-17 
5329.00 3.7723e-17 
5330.50 4.4442e-17 
5332.00 4.1254e-17 
5333.50 3.9812e-17 
5335.00 4.5559e-17 
5336.50 4.1664e-17 
5338.00 3.8908e-17 
5339.50 4.1732e-17 
5341.00 4.1723e-17 
5342.50 3.9002e-17 
5344.00 3.6186e-17 
5345.50 3.4917e-17 
5347.00 3.9959e-17 
5348.50 3.7928e-17 
5350.00 4.1075e-17 
5351.50 3.6980e-17 
5353.00 3.7795e-17 
5354.50 4.3463e-17 
5356.00 4.0284e-17 
5357.50 4.0904e-17 
5359.00 4.0302e-17 
5360.50 4.3603e-17 
5362.00 4.1310e-17 
5363.50 4.0369e-17 
5365.00 4.1486e-17 
5366.50 3.8892e-17 
5368.00 3.8016e-17 
5369.50 3.5763e-17 
5371.00 3.8441e-17 
5372.50 3.7864e-17 
5374.00 4.0057e-17 
5375.50 4.0711e-17 
5377.00 4.2182e-17 
5378.50 4.1794e-17 
5380.00 3.8680e-17 
5381.50 3.9593e-17 
5383.00 4.5011e-17 
5384.50 4.0573e-17 
5386.00 4.1558e-17 
5387.50 4.0691e-17 
5389.00 4.0548e-17 
5390.50 3.9323e-17 
5392.00 4.1172e-17 
5393.50 3.9527e-17 
5395.00 3.5506e-17 
5396.50 4.2999e-17 
5398.00 4.5064e-17 
5399.50 3.9323e-17 
5401.00 3.8893e-17 
5402.50 3.7768e-17 
5404.00 3.4734e-17 
5405.50 3.8464e-17 
5407.00 3.9428e-17 
5408.50 4.0079e-17 
5410.00 3.6583e-17 
5411.50 4.6617e-17 
5413.00 3.6033e-17 
5414.50 3.6353e-17 
5416.00 4.0289e-17 
5417.50 4.3125e-17 
5419.00 3.7405e-17 
5420.50 3.9739e-17 
5422.00 3.9566e-17 
5423.50 3.6349e-17 
5425.00 4.1992e-17 
5426.50 4.4806e-17 
5428.00 3.9852e-17 
5429.50 4.2282e-17 
5431.00 3.6150e-17 
5432.50 3.0648e-17 
5434.00 3.7520e-17 
5435.50 4.0094e-17 
5437.00 3.6454e-17 
5438.50 3.6518e-17 
5440.00 3.7185e-17 
5441.50 4.3380e-17 
5443.00 3.8730e-17 
5444.50 4.1716e-17 
5446.00 4.2851e-17 
5447.50 3.6797e-17 
5449.00 3.9109e-17 
5450.50 3.6406e-17 
5452.00 4.0343e-17 
5453.50 4.5945e-17 
5455.00 4.1215e-17 
5456.50 3.9567e-17 
5458.00 4.5220e-17 
5459.50 3.6267e-17 
5461.00 3.8522e-17 
5462.50 4.0375e-17 
5464.00 4.1667e-17 
5465.50 3.8002e-17 
5467.00 3.9698e-17 
5468.50 4.2735e-17 
5470.00 3.7432e-17 
5471.50 3.7709e-17 
5473.00 3.6441e-17 
5474.50 3.8948e-17 
5476.00 3.9442e-17 
5477.50 4.2437e-17 
5479.00 3.8748e-17 
5480.50 3.9241e-17 
5482.00 3.8556e-17 
5483.50 3.5842e-17 
5485.00 3.5759e-17 
5486.50 3.1538e-17 
5488.00 4.3376e-17 
5489.50 4.1940e-17 
5491.00 4.3887e-17 
5492.50 3.5631e-17 
5494.00 4.1333e-17 
5495.50 3.4061e-17 
5497.00 3.4070e-17 
5498.50 4.2280e-17 
5500.00 4.1716e-17 
5501.50 3.8786e-17 
5503.00 3.9868e-17 
5504.50 4.1720e-17 
5506.00 3.7124e-17 
5507.50 3.4556e-17 
5509.00 3.5624e-17 
5510.50 3.6666e-17 
5512.00 3.1900e-17 
5513.50 3.3832e-17 
5515.00 3.6596e-17 
5516.50 3.5290e-17 
5518.00 3.9394e-17 
5519.50 4.3150e-17 
5521.00 3.7930e-17 
5522.50 3.5073e-17 
5524.00 3.9791e-17 
5525.50 3.6863e-17 
5527.00 3.2385e-17 
5528.50 3.4273e-17 
5530.00 4.1519e-17 
5531.50 4.1753e-17 
5533.00 4.1595e-17 
5534.50 3.9586e-17 
5536.00 3.4234e-17 
5537.50 3.1985e-17 
5539.00 3.8141e-17 
5540.50 3.7354e-17 
5542.00 3.8412e-17 
5543.50 4.0774e-17 
5545.00 4.2642e-17 
5546.50 4.0371e-17 
5548.00 3.8043e-17 
5549.50 3.7313e-17 
5551.00 3.8746e-17 
5552.50 4.2734e-17 
5554.00 4.4958e-17 
5555.50 3.9461e-17 
5557.00 3.7829e-17 
5558.50 4.0061e-17 
5560.00 3.4251e-17 
5561.50 3.7987e-17 
5563.00 3.6685e-17 
5564.50 3.9313e-17 
5566.00 3.6457e-17 
5567.50 3.9351e-17 
5569.00 3.9914e-17 
5570.50 3.9256e-17 
5572.00 3.9592e-17 
5573.50 3.9897e-17 
5575.00 4.0201e-17 
5576.50 4.0504e-17 
5578.00 4.0808e-17 
5579.50 4.1121e-17 
5581.00 4.1454e-17 
5582.50 4.1757e-17 
5584.00 4.2061e-17 
5585.50 4.0636e-17 
5587.00 3.4091e-17 
5588.50 3.9489e-17 
5590.00 3.5344e-17 
5591.50 4.1104e-17 
5593.00 4.2030e-17 
5594.50 3.8858e-17 
5596.00 4.5435e-17 
5597.50 3.7341e-17 
5599.00 3.9564e-17 
5600.50 4.0694e-17 
5602.00 3.6783e-17 
5603.50 3.5948e-17 
5605.00 3.9141e-17 
5606.50 3.6176e-17 
5608.00 3.8489e-17 
5609.50 3.7359e-17 
5611.00 3.4702e-17 
5612.50 3.5144e-17 
5614.00 3.7207e-17 
5615.50 3.6225e-17 
5617.00 3.5231e-17 
5618.50 4.3082e-17 
5620.00 4.4331e-17 
5621.50 3.9891e-17 
5623.00 3.5731e-17 
5624.50 3.1394e-17 
5626.00 3.0877e-17 
5627.50 3.6163e-17 
5629.00 3.5232e-17 
5630.50 3.4116e-17 
5632.00 3.8607e-17 
5633.50 3.7576e-17 
5635.00 3.8887e-17 
5636.50 4.2885e-17 
5638.00 3.8556e-17 
5639.50 4.2388e-17 
5641.00 4.3528e-17 
5642.50 3.8183e-17 
5644.00 4.4637e-17 
5645.50 3.5525e-17 
5647.00 4.0357e-17 
5648.50 4.3463e-17 
5650.00 3.9036e-17 
5651.50 4.0949e-17 
5653.00 4.2092e-17 
5654.50 4.0635e-17 
5656.00 4.2269e-17 
5657.50 4.3319e-17 
5659.00 4.0415e-17 
5660.50 3.9555e-17 
5662.00 3.9987e-17 
5663.50 4.0759e-17 
5665.00 3.9930e-17 
5666.50 3.8198e-17 
5668.00 3.8474e-17 
5669.50 3.9258e-17 
5671.00 3.8452e-17 
5672.50 3.6604e-17 
5674.00 4.4849e-17 
5675.50 4.5765e-17 
5677.00 3.9033e-17 
5678.50 4.0266e-17 
5680.00 3.6983e-17 
5681.50 3.7359e-17 
5683.00 3.9654e-17 
5684.50 3.9435e-17 
5686.00 3.3581e-17 
5687.50 3.0552e-17 
5689.00 3.5220e-17 
5690.50 3.5953e-17 
5692.00 3.8778e-17 
5693.50 4.3562e-17 
5695.00 4.4179e-17 
5696.50 4.2821e-17 
5698.00 3.4097e-17 
5699.50 4.0376e-17 
5701.00 4.1617e-17 
5702.50 3.8098e-17 
5704.00 3.9563e-17 
5705.50 4.4064e-17 
5707.00 3.9307e-17 
5708.50 4.0472e-17 
5710.00 3.9636e-17 
5711.50 3.9781e-17 
5713.00 4.3330e-17 
5714.50 4.0860e-17 
5716.00 4.4113e-17 
5717.50 4.3231e-17 
5719.00 3.9323e-17 
5720.50 4.0029e-17 
5722.00 3.9457e-17 
5723.50 4.1749e-17 
5725.00 4.2932e-17 
5726.50 3.8206e-17 
5728.00 4.0861e-17 
5729.50 4.7523e-17 
5731.00 4.5682e-17 
5732.50 4.2253e-17 
5734.00 3.9410e-17 
5735.50 4.5035e-17 
5737.00 3.7634e-17 
5738.50 3.4409e-17 
5740.00 4.0446e-17 
5741.50 4.0846e-17 
5743.00 4.2178e-17 
5744.50 4.5836e-17 
5746.00 5.0694e-17 
5747.50 5.2197e-17 
5749.00 5.0850e-17 
5750.50 4.6377e-17 
5752.00 4.1959e-17 
5753.50 4.4141e-17 
5755.00 4.5835e-17 
5756.50 4.5564e-17 
5758.00 4.7082e-17 
5759.50 4.7613e-17 
5761.00 4.6337e-17 
5762.50 4.7624e-17 
5764.00 4.8829e-17 
5765.50 4.9033e-17 
5767.00 4.0748e-17 
5768.50 4.2837e-17 
5770.00 4.3835e-17 
5771.50 4.7192e-17 
5773.00 4.2988e-17 
5774.50 4.3023e-17 
5776.00 4.5397e-17 
5777.50 4.3986e-17 
5779.00 4.8649e-17 
5780.50 4.8089e-17 
5782.00 5.0985e-17 
5783.50 4.5553e-17 
5785.00 4.3207e-17 
5786.50 4.8409e-17 
5788.00 5.0501e-17 
5789.50 4.8753e-17 
5791.00 5.0277e-17 
5792.50 4.6204e-17 
5794.00 4.6092e-17 
5795.50 4.8809e-17 
5797.00 5.4695e-17 
5798.50 5.2332e-17 
5800.00 4.8229e-17 
5801.50 5.1168e-17 
5803.00 4.7824e-17 
5804.50 4.3911e-17 
5806.00 3.8863e-17 
5807.50 3.7097e-17 
5809.00 4.9799e-17 
5810.50 4.5595e-17 
5812.00 4.6912e-17 
5813.50 4.2572e-17 
5815.00 3.8826e-17 
5816.50 4.4401e-17 
5818.00 4.5466e-17 
5819.50 3.8330e-17 
5821.00 4.6908e-17 
5822.50 5.2178e-17 
5824.00 4.2766e-17 
5825.50 4.3277e-17 
5827.00 4.4756e-17 
5828.50 3.9355e-17 
5830.00 3.8565e-17 
5831.50 4.5408e-17 
5833.00 4.7136e-17 
5834.50 4.4611e-17 
5836.00 3.9232e-17 
5837.50 4.3906e-17 
5839.00 4.5896e-17 
5840.50 3.8432e-17 
5842.00 4.2148e-17 
5843.50 4.8707e-17 
5845.00 4.8708e-17 
5846.50 4.9824e-17 
5848.00 5.3736e-17 
5849.50 5.6407e-17 
5851.00 5.0814e-17 
5852.50 5.0779e-17 
5854.00 4.7866e-17 
5855.50 3.8838e-17 
5857.00 3.9573e-17 
5858.50 4.1773e-17 
5860.00 4.1280e-17 
5861.50 3.6515e-17 
5863.00 4.2572e-17 
5864.50 4.6436e-17 
5866.00 4.3699e-17 
5867.50 4.4554e-17 
5869.00 4.1379e-17 
5870.50 4.5410e-17 
5872.00 4.4724e-17 
5873.50 4.3037e-17 
5875.00 4.6251e-17 
5876.50 4.7018e-17 
5878.00 4.6467e-17 
5879.50 4.7218e-17 
5881.00 4.6411e-17 
5882.50 4.1580e-17 
5884.00 4.3784e-17 
5885.50 4.5624e-17 
5887.00 4.6602e-17 
5888.50 4.9621e-17 
5890.00 4.1934e-17 
5891.50 4.3533e-17 
5893.00 4.4598e-17 
5894.50 4.6319e-17 
5896.00 4.5124e-17 
5897.50 3.3580e-17 
5899.00 4.1139e-17 
5900.50 4.9167e-17 
5902.00 4.6661e-17 
5903.50 4.3817e-17 
5905.00 4.4201e-17 
5906.50 4.4447e-17 
5908.00 4.6523e-17 
5909.50 4.9621e-17 
5911.00 4.6997e-17 
5912.50 4.9693e-17 
5914.00 3.9649e-17 
5915.50 4.1945e-17 
5917.00 4.0270e-17 
5918.50 4.6952e-17 
5920.00 4.8925e-17 
5921.50 4.5001e-17 
5923.00 4.3636e-17 
5924.50 4.1591e-17 
5926.00 4.2646e-17 
5927.50 4.4945e-17 
5929.00 4.8583e-17 
5930.50 4.1873e-17 
5932.00 5.2808e-17 
5933.50 3.7114e-17 
5935.00 3.9618e-17 
5936.50 4.1499e-17 
5938.00 4.1969e-17 
5939.50 4.2295e-17 
5941.00 3.5046e-17 
5942.50 4.2622e-17 
5944.00 4.8446e-17 
5945.50 3.8937e-17 
5947.00 3.9603e-17 
5948.50 4.5779e-17 
5950.00 3.9667e-17 
5951.50 3.8753e-17 
5953.00 3.6162e-17 
5954.50 3.3894e-17 
5956.00 3.7727e-17 
5957.50 4.5923e-17 
5959.00 4.3035e-17 
5960.50 3.7310e-17 
5962.00 4.6027e-17 
5963.50 4.1138e-17 
5965.00 3.7378e-17 
5966.50 3.9768e-17 
5968.00 3.9900e-17 
5969.50 4.3107e-17 
5971.00 4.2237e-17 
5972.50 3.4190e-17 
5974.00 3.5293e-17 
5975.50 4.1596e-17 
5977.00 4.0652e-17 
5978.50 3.7662e-17 
5980.00 4.3693e-17 
5981.50 4.1664e-17 
5983.00 4.0209e-17 
5984.50 3.5824e-17 
5986.00 3.6438e-17 
5987.50 3.4108e-17 
5989.00 3.5236e-17 
5990.50 3.9633e-17 
5992.00 3.9516e-17 
5993.50 4.0638e-17 
5995.00 3.9406e-17 
5996.50 3.8775e-17 
5998.00 3.6018e-17 
5999.50 3.4742e-17 
6001.00 3.4667e-17 
6002.50 3.6352e-17 
6004.00 3.6632e-17 
6005.50 4.0291e-17 
6007.00 3.6983e-17 
6008.50 3.0977e-17 
6010.00 3.9821e-17 
6011.50 4.3837e-17 
6013.00 3.4858e-17 
6014.50 4.0050e-17 
6016.00 3.3902e-17 
6017.50 3.1586e-17 
6019.00 3.4408e-17 
6020.50 3.6335e-17 
6022.00 3.3995e-17 
6023.50 3.5261e-17 
6025.00 4.0464e-17 
6026.50 3.6288e-17 
6028.00 3.4251e-17 
6029.50 3.8275e-17 
6031.00 3.7968e-17 
6032.50 3.4424e-17 
6034.00 3.1047e-17 
6035.50 3.1268e-17 
6037.00 3.3917e-17 
6038.50 3.8409e-17 
6040.00 4.1801e-17 
6041.50 3.5852e-17 
6043.00 3.3507e-17 
6044.50 3.4586e-17 
6046.00 2.7583e-17 
6047.50 3.2155e-17 
6049.00 3.8816e-17 
6050.50 3.7111e-17 
6052.00 3.4652e-17 
6053.50 3.5439e-17 
6055.00 3.5410e-17 
6056.50 3.5285e-17 
6058.00 3.4119e-17 
6059.50 3.3574e-17 
6061.00 2.9973e-17 
6062.50 3.5964e-17 
6064.00 3.7787e-17 
6065.50 3.2254e-17 
6067.00 3.1356e-17 
6068.50 3.1814e-17 
6070.00 3.5706e-17 
6071.50 4.0237e-17 
6073.00 2.4196e-17 
6074.50 3.1939e-17 
6076.00 3.6919e-17 
6077.50 3.3885e-17 
6079.00 3.2092e-17 
6080.50 3.3035e-17 
6082.00 3.4917e-17 
6083.50 3.5952e-17 
6085.00 3.4682e-17 
6086.50 3.4517e-17 
6088.00 3.1463e-17 
6089.50 3.4774e-17 
6091.00 3.6384e-17 
6092.50 3.4046e-17 
6094.00 3.3910e-17 
6095.50 3.6793e-17 
6097.00 3.6923e-17 
6098.50 3.3582e-17 
6100.00 3.3691e-17 
6101.50 3.6538e-17 
6103.00 3.4281e-17 
6104.50 3.0445e-17 
6106.00 3.0325e-17 
6107.50 3.5778e-17 
6109.00 3.5306e-17 
6110.50 2.9978e-17 
6112.00 3.2241e-17 
6113.50 3.2888e-17 
6115.00 3.8295e-17 
6116.50 3.7318e-17 
6118.00 3.4279e-17 
6119.50 3.3133e-17 
6121.00 2.9384e-17 
6122.50 2.6340e-17 
6124.00 3.1750e-17 
6125.50 3.2794e-17 
6127.00 3.3276e-17 
6128.50 3.1578e-17 
6130.00 3.3231e-17 
6131.50 3.4691e-17 
6133.00 3.5670e-17 
6134.50 3.4874e-17 
6136.00 2.7965e-17 
6137.50 2.2546e-17 
6139.00 3.1406e-17 
6140.50 3.7452e-17 
6142.00 3.6985e-17 
6143.50 2.9322e-17 
6145.00 2.8125e-17 
6146.50 3.3397e-17 
6148.00 3.5917e-17 
6149.50 3.1506e-17 
6151.00 2.4484e-17 
6152.50 3.1829e-17 
6154.00 3.3105e-17 
6155.50 2.9844e-17 
6157.00 3.0562e-17 
6158.50 3.4043e-17 
6160.00 3.2623e-17 
6161.50 3.3472e-17 
6163.00 3.9134e-17 
6164.50 3.2043e-17 
6166.00 3.2536e-17 
6167.50 2.9416e-17 
6169.00 2.6946e-17 
6170.50 2.4987e-17 
6172.00 2.7834e-17 
6173.50 3.3584e-17 
6175.00 3.0270e-17 
6176.50 2.7427e-17 
6178.00 2.7283e-17 
6179.50 2.8722e-17 
6181.00 2.9901e-17 
6182.50 3.3737e-17 
6184.00 3.3766e-17 
6185.50 3.1087e-17 
6187.00 3.1022e-17 
6188.50 3.2391e-17 
6190.00 3.1902e-17 
6191.50 2.3966e-17 
6193.00 3.2904e-17 
6194.50 3.1933e-17 
6196.00 2.9366e-17 
6197.50 3.5446e-17 
6199.00 3.6992e-17 
6200.50 3.4295e-17 
6202.00 3.6241e-17 
6203.50 3.3565e-17 
6205.00 3.7126e-17 
6206.50 3.8145e-17 
6208.00 3.1878e-17 
6209.50 2.9437e-17 
6211.00 2.9916e-17 
6212.50 3.0027e-17 
6214.00 2.7173e-17 
6215.50 2.6180e-17 
6217.00 3.7120e-17 
6218.50 3.4549e-17 
6220.00 3.2576e-17 
6221.50 3.1959e-17 
6223.00 2.7057e-17 
6224.50 3.2485e-17 
6226.00 3.3730e-17 
6227.50 3.3789e-17 
6229.00 3.1027e-17 
6230.50 3.0483e-17 
6232.00 3.1129e-17 
6233.50 3.0589e-17 
6235.00 3.3089e-17 
6236.50 3.4620e-17 
6238.00 3.3569e-17 
6239.50 2.9742e-17 
6241.00 3.2640e-17 
6242.50 3.2067e-17 
6244.00 3.0287e-17 
6245.50 3.0495e-17 
6247.00 2.6358e-17 
6248.50 2.3438e-17 
6250.00 2.6359e-17 
6251.50 3.1678e-17 
6253.00 2.7804e-17 
6254.50 2.9206e-17 
6256.00 3.6565e-17 
6257.50 3.7740e-17 
6259.00 3.2044e-17 
6260.50 2.8092e-17 
6262.00 1.8979e-17 
6263.50 2.7296e-17 
6265.00 3.1782e-17 
6266.50 2.6438e-17 
6268.00 2.9335e-17 
6269.50 2.9300e-17 
6271.00 2.3802e-17 
6272.50 2.8623e-17 
6274.00 2.9168e-17 
6275.50 2.8418e-17 
6277.00 2.3441e-17 
6278.50 2.0352e-17 
6280.00 2.6318e-17 
6281.50 3.0759e-17 
6283.00 3.2631e-17 
6284.50 2.4362e-17 
6286.00 2.5118e-17 
6287.50 2.4605e-17 
6289.00 2.2486e-17 
6290.50 2.2770e-17 
6292.00 2.5864e-17 
6293.50 3.2856e-17 
6295.00 2.5754e-17 
6296.50 2.9143e-17 
6298.00 3.0444e-17 
6299.50 2.7951e-17 
6301.00 2.5460e-17 
6302.50 2.2966e-17 
6304.00 2.3389e-17 
6305.50 3.3867e-17 
6307.00 2.9099e-17 
6308.50 3.4913e-17 
6310.00 3.8625e-17 
6311.50 2.6455e-17 
6313.00 2.9356e-17 
6314.50 3.0792e-17 
6316.00 3.2436e-17 
6317.50 2.8352e-17 
6319.00 2.6932e-17 
6320.50 3.1090e-17 
6322.00 3.3928e-17 
6323.50 3.3662e-17 
6325.00 2.8554e-17 
6326.50 2.5025e-17 
6328.00 2.9958e-17 
6329.50 2.9672e-17 
6331.00 2.9852e-17 
6332.50 2.8337e-17 
6334.00 2.4854e-17 
6335.50 2.8056e-17 
6337.00 3.4807e-17 
6338.50 2.8832e-17 
6340.00 3.0622e-17 
6341.50 3.3840e-17 
6343.00 2.9475e-17 
6344.50 2.5946e-17 
6346.00 3.4475e-17 
6347.50 3.1516e-17 
6349.00 2.1708e-17 
6350.50 2.3679e-17 
6352.00 2.6456e-17 
6353.50 2.5262e-17 
6355.00 2.9808e-17 
6356.50 3.0365e-17 
6358.00 2.8546e-17 
6359.50 2.7913e-17 
6361.00 3.1000e-17 
6362.50 2.8440e-17 
6364.00 1.2205e-17 
6365.50 7.6028e-18 
6367.00 2.7935e-17 
6368.50 3.2510e-17 
6370.00 3.0104e-17 
6371.50 2.8961e-17 
6373.00 2.9515e-17 
6374.50 3.0664e-17 
6376.00 2.9681e-17 
6377.50 3.2210e-17 
6379.00 2.8689e-17 
6380.50 2.5945e-17 
6382.00 2.6837e-17 
6383.50 2.3129e-17 
6385.00 2.4161e-17 
6386.50 3.2417e-17 
6388.00 3.4024e-17 
6389.50 2.6850e-17 
6391.00 2.7643e-17 
6392.50 2.7340e-17 
6394.00 2.6399e-17 
6395.50 2.8694e-17 
6397.00 2.9378e-17 
6398.50 2.7515e-17 
6400.00 2.8416e-17 
6401.50 2.4650e-17 
6403.00 2.6060e-17 
6404.50 3.0179e-17 
6406.00 2.9984e-17 
6407.50 3.0719e-17 
6409.00 2.7749e-17 
6410.50 2.6587e-17 
6412.00 2.8040e-17 
6413.50 2.6517e-17 
6415.00 2.4304e-17 
6416.50 2.9267e-17 
6418.00 2.5698e-17 
6419.50 3.2254e-17 
6421.00 3.4235e-17 
6422.50 2.9469e-17 
6424.00 2.5875e-17 
6425.50 2.6909e-17 
6427.00 2.8078e-17 
6428.50 2.9362e-17 
6430.00 2.8029e-17 
6431.50 2.8858e-17 
6433.00 3.0112e-17 
6434.50 2.6195e-17 
6436.00 2.6785e-17 
6437.50 2.8169e-17 
6439.00 2.7110e-17 
6440.50 2.5758e-17 
6442.00 2.6359e-17 
6443.50 2.8577e-17 
6445.00 2.9670e-17 
6446.50 2.6369e-17 
6448.00 2.8006e-17 
6449.50 2.9180e-17 
6451.00 2.8589e-17 
6452.50 3.0028e-17 
6454.00 2.8443e-17 
6455.50 2.6724e-17 
6457.00 2.7642e-17 
6458.50 3.0699e-17 
6460.00 3.0567e-17 
6461.50 2.9227e-17 
6463.00 2.9821e-17 
6464.50 2.3931e-17 
6466.00 2.3926e-17 
6467.50 2.4674e-17 
6469.00 2.3438e-17 
6470.50 2.5150e-17 
6472.00 2.8978e-17 
6473.50 3.0005e-17 
6475.00 2.7767e-17 
6476.50 2.8335e-17 
6478.00 2.7404e-17 
6479.50 2.4720e-17 
6481.00 2.8706e-17 
6482.50 3.2497e-17 
6484.00 3.0023e-17 
6485.50 2.6672e-17 
6487.00 2.9595e-17 
6488.50 3.1873e-17 
6490.00 3.0296e-17 
6491.50 2.9884e-17 
6493.00 2.6677e-17 
6494.50 2.5946e-17 
6496.00 2.9193e-17 
6497.50 3.0708e-17 
6499.00 2.8153e-17 
6500.50 2.7361e-17 
6502.00 3.0252e-17 
6503.50 3.0249e-17 
6505.00 2.7227e-17 
6506.50 2.6949e-17 
6508.00 2.9674e-17 
6509.50 2.9818e-17 
6511.00 2.6425e-17 
6512.50 2.5604e-17 
6514.00 2.9707e-17 
6515.50 3.2957e-17 
6517.00 3.1801e-17 
6518.50 2.9305e-17 
6520.00 3.0423e-17 
6521.50 3.4508e-17 
6523.00 3.0319e-17 
6524.50 2.6300e-17 
6526.00 2.9290e-17 
6527.50 2.9671e-17 
6529.00 2.9675e-17 
6530.50 2.8861e-17 
6532.00 2.9703e-17 
6533.50 2.9256e-17 
6535.00 2.7925e-17 
6536.50 3.0345e-17 
6538.00 3.0491e-17 
6539.50 2.8213e-17 
6541.00 2.7484e-17 
6542.50 2.8080e-17 
6544.00 2.8084e-17 
6545.50 2.9059e-17 
6547.00 3.0350e-17 
6548.50 3.0438e-17 
6550.00 3.0213e-17 
6551.50 3.2055e-17 
6553.00 2.9732e-17 
6554.50 2.3380e-17 
6556.00 2.5376e-17 
6557.50 2.6581e-17 
6559.00 2.5625e-17 
6560.50 2.8678e-17 
6562.00 3.0188e-17 
6563.50 2.9705e-17 
6565.00 3.1433e-17 
6566.50 3.1282e-17 
6568.00 3.1965e-17 
6569.50 3.4953e-17 
6571.00 3.1170e-17 
6572.50 2.8115e-17 
6574.00 3.1894e-17 
6575.50 3.2407e-17 
6577.00 2.7151e-17 
6578.50 2.6770e-17 
6580.00 3.1466e-17 
6581.50 3.0171e-17 
6583.00 2.8485e-17 
6584.50 2.8996e-17 
6586.00 3.0513e-17 
6587.50 3.1060e-17 
6589.00 2.9378e-17 
6590.50 2.8693e-17 
6592.00 2.7983e-17 
6593.50 2.7572e-17 
6595.00 2.6712e-17 
6596.50 2.6539e-17 
6598.00 3.2380e-17 
6599.50 2.4748e-17 
6601.00 2.6586e-17 
6602.50 3.1142e-17 
6604.00 2.8980e-17 
6605.50 2.9942e-17 
6607.00 3.0883e-17 
6608.50 2.6003e-17 
6610.00 2.7545e-17 
6611.50 2.9696e-17 
6613.00 2.8036e-17 
6614.50 3.0810e-17 
6616.00 2.9712e-17 
6617.50 2.7080e-17 
6619.00 2.8191e-17 
6620.50 2.8083e-17 
6622.00 2.5391e-17 
6623.50 2.6567e-17 
6625.00 2.5232e-17 
6626.50 2.5619e-17 
6628.00 2.8222e-17 
6629.50 3.0109e-17 
6631.00 2.9186e-17 
6632.50 2.7165e-17 
6634.00 2.8473e-17 
6635.50 2.8566e-17 
6637.00 2.7201e-17 
6638.50 2.5175e-17 
6640.00 2.3882e-17 
6641.50 2.5929e-17 
6643.00 2.7508e-17 
6644.50 2.5057e-17 
6646.00 2.4242e-17 
6647.50 2.6634e-17 
6649.00 2.7935e-17 
6650.50 2.7959e-17 
6652.00 2.8126e-17 
6653.50 3.0020e-17 
6655.00 3.0910e-17 
6656.50 3.0055e-17 
6658.00 3.1549e-17 
6659.50 3.0658e-17 
6661.00 2.5857e-17 
6662.50 2.6818e-17 
6664.00 3.2135e-17 
6665.50 3.3176e-17 
6667.00 3.0422e-17 
6668.50 2.6325e-17 
6670.00 2.4745e-17 
6671.50 2.8950e-17 
6673.00 2.6361e-17 
6674.50 2.8216e-17 
6676.00 2.8545e-17 
6677.50 2.4379e-17 
6679.00 2.5169e-17 
6680.50 2.5627e-17 
6682.00 2.7024e-17 
6683.50 2.9914e-17 
6685.00 2.8035e-17 
6686.50 2.5797e-17 
6688.00 3.4645e-17 
6689.50 3.0617e-17 
6691.00 3.0378e-17 
6692.50 2.9270e-17 
6694.00 2.5755e-17 
6695.50 2.5803e-17 
6697.00 3.2300e-17 
6698.50 3.0328e-17 
6700.00 2.6436e-17 
6701.50 2.6210e-17 
6703.00 2.7922e-17 
6704.50 2.9163e-17 
6706.00 2.9629e-17 
6707.50 2.5774e-17 
6709.00 2.6896e-17 
6710.50 3.0323e-17 
6712.00 3.0251e-17 
6713.50 2.9647e-17 
6715.00 2.7941e-17 
6716.50 2.8232e-17 
6718.00 3.0344e-17 
6719.50 2.7574e-17 
6721.00 2.6733e-17 
6722.50 3.1015e-17 
6724.00 3.5127e-17 
6725.50 3.2257e-17 
6727.00 2.5672e-17 
6728.50 2.4211e-17 
6730.00 2.5670e-17 
6731.50 2.6609e-17 
6733.00 2.6125e-17 
6734.50 2.5925e-17 
6736.00 2.8161e-17 
6737.50 2.8493e-17 
6739.00 2.4905e-17 
6740.50 2.5031e-17 
6742.00 2.6823e-17 
6743.50 2.2143e-17 
6745.00 2.9862e-17 
6746.50 2.8254e-17 
6748.00 2.8907e-17 
6749.50 3.1869e-17 
6751.00 3.1006e-17 
6752.50 3.0710e-17 
6754.00 2.8643e-17 
6755.50 2.8915e-17 
6757.00 2.7259e-17 
6758.50 2.3530e-17 
6760.00 2.4551e-17 
6761.50 2.5583e-17 
6763.00 2.6175e-17 
6764.50 2.9399e-17 
6766.00 2.6160e-17 
6767.50 2.3867e-17 
6769.00 2.7693e-17 
6770.50 2.9122e-17 
6772.00 2.3078e-17 
6773.50 3.0547e-17 
6775.00 2.6931e-17 
6776.50 2.6047e-17 
6778.00 2.8450e-17 
6779.50 2.9181e-17 
6781.00 3.1066e-17 
6782.50 2.7301e-17 
6784.00 2.6654e-17 
6785.50 2.8818e-17 
6787.00 2.8696e-17 
6788.50 2.7551e-17 
6790.00 3.1029e-17 
6791.50 2.8961e-17 
6793.00 2.4114e-17 
6794.50 2.4554e-17 
6796.00 2.7166e-17 
6797.50 2.6610e-17 
6799.00 2.6809e-17 
6800.50 2.6883e-17 
6802.00 2.5365e-17 
6803.50 2.6915e-17 
6805.00 2.5100e-17 
6806.50 2.6050e-17 
6808.00 2.7405e-17 
6809.50 2.1374e-17 
6811.00 2.7730e-17 
6812.50 2.2804e-17 
6814.00 2.7431e-17 
6815.50 3.3596e-17 
6817.00 3.0074e-17 
6818.50 2.9187e-17 
6820.00 2.5471e-17 
6821.50 2.6017e-17 
6823.00 2.9936e-17 
6824.50 3.1058e-17 
6826.00 2.6965e-17 
6827.50 2.2787e-17 
6829.00 2.3052e-17 
6830.50 2.5195e-17 
6832.00 2.7329e-17 
6833.50 2.8993e-17 
6835.00 2.9306e-17 
6836.50 3.0273e-17 
6838.00 3.0704e-17 
6839.50 2.5980e-17 
6841.00 2.5524e-17 
6842.50 2.6750e-17 
6844.00 2.5192e-17 
6845.50 2.2962e-17 
6847.00 2.6336e-17 
6848.50 2.6639e-17 
6850.00 2.6637e-17 
6851.50 2.7030e-17 
6853.00 2.8008e-17 
6854.50 2.7986e-17 
6856.00 2.5775e-17 
6857.50 2.6574e-17 
6859.00 2.4233e-17 
6860.50 2.4462e-17 
6862.00 2.5831e-17 
6863.50 2.2111e-17 
6865.00 2.1630e-17 
6866.50 2.6899e-17 
6868.00 2.8459e-17 
6869.50 3.2454e-17 
6871.00 3.0676e-17 
6872.50 2.5378e-17 
6874.00 2.5328e-17 
6875.50 3.0804e-17 
6877.00 2.2367e-17 
6878.50 2.4846e-17 
6880.00 2.4753e-17 
6881.50 2.2597e-17 
6883.00 2.3072e-17 
6884.50 2.4529e-17 
6886.00 2.6963e-17 
6887.50 2.4988e-17 
6889.00 2.2691e-17 
6890.50 2.3990e-17 
6892.00 2.6445e-17 
6893.50 2.6670e-17 
6895.00 2.4672e-17 
6896.50 2.3638e-17 
6898.00 2.5251e-17 
6899.50 2.4940e-17 
6901.00 2.5925e-17 
6902.50 2.7939e-17 
6904.00 2.3552e-17 
6905.50 2.5794e-17 
6907.00 2.4398e-17 
6908.50 2.4225e-17 
6910.00 2.3456e-17 
6911.50 2.2594e-17 
6913.00 2.6113e-17 
6914.50 2.6494e-17 
6916.00 2.5218e-17 
6917.50 2.4397e-17 
6919.00 2.3011e-17 
6920.50 2.2762e-17 
6922.00 2.6776e-17 
6923.50 3.0822e-17 
6925.00 2.5398e-17 
6926.50 2.3976e-17 
6928.00 2.5307e-17 
6929.50 2.7371e-17 
6931.00 2.8173e-17 
6932.50 2.6112e-17 
6934.00 2.8216e-17 
6935.50 3.0079e-17 
6937.00 2.8401e-17 
6938.50 2.3762e-17 
6940.00 2.1280e-17 
6941.50 2.5125e-17 
6943.00 2.7117e-17 
6944.50 2.5435e-17 
6946.00 2.5293e-17 
6947.50 2.4377e-17 
6949.00 2.4419e-17 
6950.50 2.6107e-17 
6952.00 2.5821e-17 
6953.50 2.5386e-17 
6955.00 2.7320e-17 
6956.50 2.7165e-17 
6958.00 2.6255e-17 
6959.50 2.6359e-17 
6961.00 2.6418e-17 
6962.50 2.5479e-17 
6964.00 2.3613e-17 
6965.50 2.3375e-17 
6967.00 2.5010e-17 
6968.50 2.6224e-17 
6970.00 2.6384e-17 
6971.50 2.6784e-17 
6973.00 2.6637e-17 
6974.50 2.3712e-17 
6976.00 2.3012e-17 
6977.50 2.4625e-17 
6979.00 2.5831e-17 
6980.50 2.6174e-17 
6982.00 2.5013e-17 
6983.50 2.5746e-17 
6985.00 2.7338e-17 
6986.50 2.7359e-17 
6988.00 2.5390e-17 
6989.50 2.3549e-17 
6991.00 2.3098e-17 
6992.50 2.4288e-17 
6994.00 2.6723e-17 
6995.50 2.6785e-17 
6997.00 2.6463e-17 
6998.50 2.7286e-17 
7000.00 2.6053e-17 
7001.50 2.7100e-17 
7003.00 2.5998e-17 
7004.50 2.5511e-17 
7006.00 2.4490e-17 
7007.50 2.4216e-17 
7009.00 2.7701e-17 
7010.50 2.7105e-17 
7012.00 2.3416e-17 
7013.50 2.2496e-17 
7015.00 2.1748e-17 
7016.50 2.2889e-17 
7018.00 2.5944e-17 
7019.50 2.6069e-17 
7021.00 2.9543e-17 
7022.50 2.5123e-17 
7024.00 2.3411e-17 
7025.50 2.4164e-17 
7027.00 2.3133e-17 
7028.50 2.1070e-17 
7030.00 2.4256e-17 
7031.50 2.5486e-17 
7033.00 2.4097e-17 
7034.50 2.5540e-17 
7036.00 2.5466e-17 
7037.50 2.4680e-17 
7039.00 3.1005e-17 
7040.50 2.5672e-17 
7042.00 2.4483e-17 
7043.50 2.2495e-17 
7045.00 2.2598e-17 
7046.50 2.5812e-17 
7048.00 2.5471e-17 
7049.50 2.0541e-17 
7051.00 1.9517e-17 
7052.50 2.2346e-17 
7054.00 2.3499e-17 
7055.50 2.3837e-17 
7057.00 2.5899e-17 
7058.50 2.7245e-17 
7060.00 2.2384e-17 
7061.50 2.6868e-17 
7063.00 2.6515e-17 
7064.50 2.2996e-17 
7066.00 2.2710e-17 
7067.50 2.5858e-17 
7069.00 2.8869e-17 
7070.50 2.7055e-17 
7072.00 2.4454e-17 
7073.50 2.5196e-17 
7075.00 2.4974e-17 
7076.50 2.2202e-17 
7078.00 2.3127e-17 
7079.50 2.4886e-17 
7081.00 2.1786e-17 
7082.50 2.1999e-17 
7084.00 2.3432e-17 
7085.50 2.3038e-17 
7087.00 2.2476e-17 
7088.50 2.3910e-17 
7090.00 2.3753e-17 
7091.50 2.2777e-17 
7093.00 2.4598e-17 
7094.50 2.5437e-17 
7096.00 2.3545e-17 
7097.50 2.4777e-17 
7099.00 2.3666e-17 
7100.50 2.4124e-17 
7102.00 2.3167e-17 
7103.50 2.2384e-17 
7105.00 2.2913e-17 
7106.50 2.3498e-17 
7108.00 2.4388e-17 
7109.50 2.3699e-17 
7111.00 2.1753e-17 
7112.50 2.3996e-17 
7114.00 2.7721e-17 
7115.50 2.6488e-17 
7117.00 2.1224e-17 
7118.50 2.8087e-17 
7120.00 2.6462e-17 
7121.50 2.4434e-17 
7123.00 2.5248e-17 
7124.50 2.6706e-17 
7126.00 2.6332e-17 
7127.50 2.5670e-17 
7129.00 2.6277e-17 
7130.50 2.5886e-17 
7132.00 2.6833e-17 
7133.50 2.7086e-17 
7135.00 2.5979e-17 
7136.50 2.7285e-17 
7138.00 2.4117e-17 
7139.50 2.5546e-17 
7141.00 2.4986e-17 
7142.50 2.3972e-17 
7144.00 2.6038e-17 
7145.50 2.6944e-17 
7147.00 2.1699e-17 
7148.50 2.0252e-17 
7150.00 2.6859e-17 
7151.50 2.7402e-17 
7153.00 2.6240e-17 
7154.50 2.7305e-17 
7156.00 2.4591e-17 
7157.50 2.5859e-17 
7159.00 2.8154e-17 
7160.50 2.7276e-17 
7162.00 2.5061e-17 
7163.50 2.5911e-17 
7165.00 2.8584e-17 
7166.50 2.6278e-17 
7168.00 2.9040e-17 
7169.50 2.6303e-17 
7171.00 2.3186e-17 
7172.50 2.3072e-17 
7174.00 2.3955e-17 
7175.50 2.2454e-17 
7177.00 2.2155e-17 
7178.50 2.4437e-17 
7180.00 2.4886e-17 
7181.50 2.4078e-17 
7183.00 2.3686e-17 
7184.50 2.4038e-17 
7186.00 2.4478e-17 
7187.50 2.6389e-17 
7189.00 2.4373e-17 
7190.50 2.3065e-17 
7192.00 2.3047e-17 
7193.50 2.2734e-17 
7195.00 2.2367e-17 
7196.50 2.2695e-17 
7198.00 2.0026e-17 
7199.50 2.0567e-17 
7201.00 2.3305e-17 
7202.50 2.5087e-17 
7204.00 2.4656e-17 
7205.50 2.1945e-17 
7207.00 1.9697e-17 
7208.50 1.9955e-17 
7210.00 2.1750e-17 
7211.50 2.2837e-17 
7213.00 2.3123e-17 
7214.50 2.3045e-17 
7216.00 2.1548e-17 
7217.50 2.1263e-17 
7219.00 2.2704e-17 
7220.50 2.4108e-17 
7222.00 2.3247e-17 
7223.50 2.1097e-17 
7225.00 2.0993e-17 
7226.50 2.2510e-17 
7228.00 2.0893e-17 
7229.50 2.2073e-17 
7231.00 2.3143e-17 
7232.50 2.5217e-17 
7234.00 2.6602e-17 
7235.50 2.3575e-17 
7237.00 2.3695e-17 
7238.50 2.2002e-17 
7240.00 2.1553e-17 
7241.50 2.8483e-17 
7243.00 3.6671e-17 
7244.50 3.7402e-17 
7246.00 3.1549e-17 
7247.50 1.9940e-17 
7249.00 2.0204e-17 
7250.50 2.3131e-17 
7252.00 2.4545e-17 
7253.50 2.4544e-17 
7255.00 2.4262e-17 
7256.50 2.3451e-17 
7258.00 2.1804e-17 
7259.50 2.4996e-17 
7261.00 2.5629e-17 
7262.50 2.3861e-17 
7264.00 2.3204e-17 
7265.50 2.2983e-17 
7267.00 2.3477e-17 
7268.50 2.2833e-17 
7270.00 2.2597e-17 
7271.50 2.5566e-17 
7273.00 2.7683e-17 
7274.50 2.3703e-17 
7276.00 1.7619e-17 
7277.50 1.8705e-17 
7279.00 2.4487e-17 
7280.50 2.5349e-17 
7282.00 2.3306e-17 
7283.50 2.2627e-17 
7285.00 2.2712e-17 
7286.50 2.0172e-17 
7288.00 2.0951e-17 
7289.50 2.4985e-17 
7291.00 2.3181e-17 
7292.50 2.3347e-17 
7294.00 2.5656e-17 
7295.50 2.3037e-17 
7297.00 2.1751e-17 
7298.50 2.5255e-17 
7300.00 2.7379e-17 
7301.50 2.3629e-17 
7303.00 2.1488e-17 
7304.50 2.3187e-17 
7306.00 1.7788e-17 
7307.50 1.9756e-17 
7309.00 2.1763e-17 
7310.50 2.4280e-17 
7312.00 2.6441e-17 
7313.50 2.5194e-17 
7315.00 2.2063e-17 
7316.50 2.7103e-17 
7318.00 2.9203e-17 
7319.50 2.2777e-17 
7321.00 2.3026e-17 
7322.50 2.5608e-17 
7324.00 2.5128e-17 
7325.50 2.2797e-17 
7327.00 2.2319e-17 
7328.50 2.2790e-17 
7330.00 2.2293e-17 
7331.50 2.1958e-17 
7333.00 2.2449e-17 
7334.50 2.2246e-17 
7336.00 2.1175e-17 
7337.50 2.3482e-17 
7339.00 2.7777e-17 
7340.50 2.9394e-17 
7342.00 2.7295e-17 
7343.50 2.0615e-17 
7345.00 1.6949e-17 
7346.50 2.4798e-17 
7348.00 2.2396e-17 
7349.50 2.4417e-17 
7351.00 2.6149e-17 
7352.50 2.2704e-17 
7354.00 1.7707e-17 
7355.50 1.8884e-17 
7357.00 2.8343e-17 
7358.50 3.2227e-17 
7360.00 2.3444e-17 
7361.50 2.1037e-17 
7363.00 2.2003e-17 
7364.50 2.1145e-17 
7366.00 1.9611e-17 
7367.50 2.2039e-17 
7369.00 2.3868e-17 
7370.50 2.2709e-17 
7372.00 1.7962e-17 
7373.50 1.7524e-17 
7375.00 2.0886e-17 
7376.50 2.1803e-17 
7378.00 2.1371e-17 
7379.50 2.2254e-17 
7381.00 2.2195e-17 
7382.50 2.2798e-17 
7384.00 2.2194e-17 
7385.50 2.0195e-17 
7387.00 2.0678e-17 
7388.50 2.3257e-17 
7390.00 2.3043e-17 
7391.50 2.1399e-17 
7393.00 2.3207e-17 
7394.50 2.3299e-17 
7396.00 1.8845e-17 
7397.50 2.3371e-17 
7399.00 2.0051e-17 
7400.50 2.6074e-17 
7402.00 2.7171e-17 
7403.50 2.0489e-17 
7405.00 1.5735e-17 
7406.50 2.0888e-17 
7408.00 2.3852e-17 
7409.50 2.2434e-17 
7411.00 2.2106e-17 
7412.50 2.0729e-17 
7414.00 2.0155e-17 
7415.50 2.1730e-17 
7417.00 2.4388e-17 
7418.50 2.5131e-17 
7420.00 2.3527e-17 
7421.50 2.2212e-17 
7423.00 2.1235e-17 
7424.50 2.0930e-17 
7426.00 2.1157e-17 
7427.50 2.1611e-17 
7429.00 2.3338e-17 
7430.50 2.6390e-17 
7432.00 2.2429e-17 
7433.50 2.0354e-17 
7435.00 2.1185e-17 
7436.50 2.0563e-17 
7438.00 1.8882e-17 
7439.50 1.7710e-17 
7441.00 2.1178e-17 
7442.50 2.9949e-17 
7444.00 2.8105e-17 
7445.50 2.0973e-17 
7447.00 2.2245e-17 
7448.50 2.2055e-17 
7450.00 2.2164e-17 
7451.50 2.3781e-17 
7453.00 2.3789e-17 
7454.50 1.8468e-17 
7456.00 1.4830e-17 
7457.50 2.0422e-17 
7459.00 2.1282e-17 
7460.50 2.0171e-17 
7462.00 2.0870e-17 
7463.50 2.1969e-17 
7465.00 2.1334e-17 
7466.50 1.8747e-17 
7468.00 1.6229e-17 
7469.50 1.8232e-17 
7471.00 2.4592e-17 
7472.50 2.2972e-17 
7474.00 2.1817e-17 
7475.50 2.2583e-17 
7477.00 2.2683e-17 
7478.50 2.0151e-17 
7480.00 2.0766e-17 
7481.50 2.5348e-17 
7483.00 2.2191e-17 
7484.50 2.0576e-17 
7486.00 2.1326e-17 
7487.50 2.2404e-17 
7489.00 2.1791e-17 
7490.50 2.0035e-17 
7492.00 2.1011e-17 
7493.50 2.4072e-17 
7495.00 2.5530e-17 
7496.50 2.4125e-17 
7498.00 2.1941e-17 
7499.50 2.2063e-17 
7501.00 2.4645e-17 
7502.50 2.1123e-17 
7504.00 2.0777e-17 
7505.50 1.9505e-17 
7507.00 1.9183e-17 
7508.50 2.0906e-17 
7510.00 2.2876e-17 
7511.50 2.3598e-17 
7513.00 2.3464e-17 
7514.50 2.1897e-17 
7516.00 1.9929e-17 
7517.50 1.9038e-17 
7519.00 1.9055e-17 
7520.50 1.9528e-17 
7522.00 2.0443e-17 
7523.50 2.1645e-17 
7525.00 2.1621e-17 
7526.50 2.2127e-17 
7528.00 2.2644e-17 
7529.50 2.3434e-17 
7531.00 2.4411e-17 
7532.50 2.2142e-17 
7534.00 1.8645e-17 
7535.50 2.3408e-17 
7537.00 2.6068e-17 
7538.50 2.1425e-17 
7540.00 1.8326e-17 
7541.50 1.9967e-17 
7543.00 2.0506e-17 
7544.50 1.8432e-17 
7546.00 1.7394e-17 
7547.50 1.9081e-17 
7549.00 2.1183e-17 
7550.50 2.0876e-17 
7552.00 1.9650e-17 
7553.50 1.9453e-17 
7555.00 1.9982e-17 
7556.50 2.0598e-17 
7558.00 2.3233e-17 
7559.50 2.2352e-17 
7561.00 1.8115e-17 
7562.50 1.8854e-17 
7564.00 2.0020e-17 
7565.50 2.0055e-17 
7567.00 1.9596e-17 
7568.50 2.0504e-17 
7570.00 2.1592e-17 
7571.50 2.0914e-17 
7573.00 2.0961e-17 
7574.50 2.1943e-17 
7576.00 2.0767e-17 
7577.50 1.8007e-17 
7579.00 1.9342e-17 
7580.50 2.0404e-17 
7582.00 1.7218e-17 
7583.50 1.9554e-17 
7585.00 2.2007e-17 
7586.50 2.2628e-17 
7588.00 2.1727e-17 
7589.50 2.1115e-17 
7591.00 1.9913e-17 
7592.50 1.8785e-17 
7594.00 2.1064e-17 
7595.50 2.2854e-17 
7597.00 2.4792e-17 
7598.50 2.5057e-17 
7600.00 2.0259e-17 
7601.50 2.0412e-17 
7603.00 3.0534e-17 
7604.50 2.9126e-17 
7606.00 1.9432e-17 
7607.50 1.5504e-17 
7609.00 2.0748e-17 
7610.50 2.4911e-17 
7612.00 2.1434e-17 
7613.50 1.6284e-17 
7615.00 1.5937e-17 
7616.50 1.9919e-17 
7618.00 2.1885e-17 
7619.50 2.1044e-17 
7621.00 2.3777e-17 
7622.50 2.4756e-17 
7624.00 1.9908e-17 
7625.50 2.1117e-17 
7627.00 1.9083e-17 
7628.50 1.5311e-17 
7630.00 1.3526e-17 
7631.50 1.6223e-17 
7633.00 1.8943e-17 
7634.50 1.7897e-17 
7636.00 1.8759e-17 
7637.50 1.8984e-17 
7639.00 1.9261e-17 
7640.50 1.9917e-17 
7642.00 1.8318e-17 
7643.50 1.9332e-17 
7645.00 2.2832e-17 
7646.50 2.1307e-17 
7648.00 1.9558e-17 
7649.50 1.9201e-17 
7651.00 1.9893e-17 
7652.50 2.1241e-17 
7654.00 2.3094e-17 
7655.50 2.2644e-17 
7657.00 1.9587e-17 
7658.50 1.9096e-17 
7660.00 2.1329e-17 
7661.50 2.2132e-17 
7663.00 2.0841e-17 
7664.50 2.0924e-17 
7666.00 2.1707e-17 
7667.50 2.0487e-17 
7669.00 1.8438e-17 
7670.50 1.7171e-17 
7672.00 1.7498e-17 
7673.50 1.7582e-17 
7675.00 1.7490e-17 
7676.50 1.7600e-17 
7678.00 1.7720e-17 
7679.50 1.8728e-17 
7681.00 2.1092e-17 
7682.50 2.2077e-17 
7684.00 1.9512e-17 
7685.50 1.8165e-17 
7687.00 1.9079e-17 
7688.50 2.0632e-17 
7690.00 2.1194e-17 
7691.50 1.9706e-17 
7693.00 1.5781e-17 
7694.50 1.4918e-17 
7696.00 1.5280e-17 
7697.50 1.6390e-17 
7699.00 1.8629e-17 
7700.50 2.1236e-17 
7702.00 1.9128e-17 
7703.50 1.7436e-17 
7705.00 1.6438e-17 
7706.50 1.6578e-17 
7708.00 1.7450e-17 
7709.50 1.7834e-17 
7711.00 1.6092e-17 
7712.50 1.4873e-17 
7714.00 1.7784e-17 
7715.50 1.9964e-17 
7717.00 2.2304e-17 
7718.50 2.3675e-17 
7720.00 2.1886e-17 
7721.50 1.2381e-17 
7723.00 2.0569e-17 
7724.50 2.0036e-17 
7726.00 1.7359e-17 
7727.50 1.6258e-17 
7729.00 1.8174e-17 
7730.50 2.1269e-17 
7732.00 1.8642e-17 
7733.50 1.8293e-17 
7735.00 1.8298e-17 
7736.50 1.8403e-17 
7738.00 1.8499e-17 
7739.50 1.8474e-17 
7741.00 1.6811e-17 
7742.50 1.3825e-17 
7744.00 1.7407e-17 
7745.50 1.9315e-17 
7747.00 2.1050e-17 
7748.50 2.4576e-17 
7750.00 2.1808e-17 
7751.50 8.5113e-18 
7753.00 7.4871e-18 
7754.50 1.0633e-17 
7756.00 1.5911e-17 
7757.50 2.0285e-17 
7759.00 1.7778e-17 
7760.50 1.6389e-17 
7762.00 2.0759e-17 
7763.50 2.0712e-17 
7765.00 1.9384e-17 
7766.50 1.9319e-17 
7768.00 2.1560e-17 
7769.50 1.9949e-17 
7771.00 1.7220e-17 
7772.50 1.6222e-17 
7774.00 1.5771e-17 
7775.50 1.5522e-17 
7777.00 1.5698e-17 
7778.50 1.7432e-17 
7780.00 2.0564e-17 
7781.50 2.0236e-17 
7783.00 1.8045e-17 
7784.50 1.7589e-17 
7786.00 2.1981e-17 
7787.50 2.4170e-17 
7789.00 2.0048e-17 
7790.50 2.0078e-17 
7792.00 2.1443e-17 
7793.50 2.2003e-17 
7795.00 2.0594e-17 
7796.50 2.0665e-17 
7798.00 2.3522e-17 
7799.50 2.0431e-17 
7801.00 1.8177e-17 
7802.50 1.7960e-17 
7804.00 1.9219e-17 
7805.50 1.9018e-17 
7807.00 1.8535e-17 
7808.50 2.2592e-17 
7810.00 2.1302e-17 
7811.50 1.6988e-17 
7813.00 1.3975e-17 
7814.50 1.6118e-17 
7816.00 1.8578e-17 
7817.50 1.7511e-17 
7819.00 2.2878e-17 
7820.50 2.4763e-17 
7822.00 1.6239e-17 
7823.50 1.2012e-17 
7825.00 1.5723e-17 
7826.50 1.7555e-17 
7828.00 1.9595e-17 
7829.50 2.1150e-17 
7831.00 2.1398e-17 
7832.50 2.0123e-17 
7834.00 1.9583e-17 
7835.50 1.9765e-17 
7837.00 1.9990e-17 
7838.50 2.0434e-17 
7840.00 2.1595e-17 
7841.50 2.5463e-17 
7843.00 2.1228e-17 
7844.50 1.8943e-17 
7846.00 1.8050e-17 
7847.50 1.8583e-17 
7849.00 2.0784e-17 
7850.50 2.8199e-17 
7852.00 2.2922e-17 
7853.50 1.9517e-17 
7855.00 1.6904e-17 
7856.50 1.5563e-17 
7858.00 1.6439e-17 
7859.50 2.2310e-17 
7861.00 2.6777e-17 
7862.50 2.6924e-17 
7864.00 2.3211e-17 
7865.50 1.8168e-17 
7867.00 1.6196e-17 
7868.50 1.7285e-17 
7870.00 1.6701e-17 
7871.50 1.6289e-17 
7873.00 1.7342e-17 
7874.50 1.9364e-17 
7876.00 1.9474e-17 
7877.50 1.7574e-17 
7879.00 1.7276e-17 
7880.50 1.7913e-17 
7882.00 1.8318e-17 
7883.50 1.8038e-17 
7885.00 1.8688e-17 
7886.50 1.9859e-17 
7888.00 2.0141e-17 
7889.50 1.9427e-17 
7891.00 1.8225e-17 
7892.50 1.7274e-17 
7894.00 1.7981e-17 
7895.50 1.5423e-17 
7897.00 1.8375e-17 
7898.50 2.0718e-17 
7900.00 2.1008e-17 
7901.50 1.9706e-17 
7903.00 2.0078e-17 
7904.50 1.9096e-17 
7906.00 1.7090e-17 
7907.50 1.7609e-17 
7909.00 2.0454e-17 
7910.50 1.9436e-17 
7912.00 1.8451e-17 
7913.50 1.8186e-17 
7915.00 1.2457e-17 
7916.50 8.6999e-18 
7918.00 1.3168e-17 
7919.50 1.9229e-17 
7921.00 2.3537e-17 
7922.50 2.2505e-17 
7924.00 1.7988e-17 
7925.50 1.3441e-17 
7927.00 1.4061e-17 
7928.50 2.3794e-17 
7930.00 1.7450e-17 
7931.50 1.3829e-17 
7933.00 1.3783e-17 
7934.50 1.6734e-17 
7936.00 1.9141e-17 
7937.50 2.0262e-17 
7939.00 1.8487e-17 
7940.50 1.6722e-17 
7942.00 1.6028e-17 
7943.50 1.7127e-17 
7945.00 2.0167e-17 
7946.50 2.0035e-17 
7948.00 1.6908e-17 
7949.50 1.6096e-17 
7951.00 1.8010e-17 
7952.50 1.6814e-17 
7954.00 1.8189e-17 
7955.50 1.9218e-17 
7957.00 1.8009e-17 
7958.50 1.5917e-17 
7960.00 1.4932e-17 
7961.50 1.9248e-17 
7963.00 2.0094e-17 
7964.50 1.7803e-17 
7966.00 1.6899e-17 
7967.50 1.8958e-17 
7969.00 2.3776e-17 
7970.50 1.8011e-17 
7972.00 1.7725e-17 
7973.50 1.8227e-17 
7975.00 1.9482e-17 
7976.50 2.1642e-17 
7978.00 2.1313e-17 
7979.50 1.9674e-17 
7981.00 2.2473e-17 
7982.50 2.3657e-17 
7984.00 2.0443e-17 
7985.50 1.1710e-17 
7987.00 1.2986e-17 
7988.50 1.6854e-17 
7990.00 1.8662e-17 
7991.50 1.9307e-17 
7993.00 2.1034e-17 
7994.50 2.2919e-17 
7996.00 1.9415e-17 
7997.50 1.7888e-17 
7999.00 1.7385e-17 
8000.50 1.7090e-17 
8002.00 1.5671e-17 
8003.50 1.8318e-17 
8005.00 1.8523e-17 
8006.50 1.7958e-17 
8008.00 1.7402e-17 
8009.50 1.7845e-17 
8011.00 1.7963e-17 
8012.50 1.7991e-17 
8014.00 1.8972e-17 
8015.50 1.8592e-17 
8017.00 1.4730e-17 
8018.50 1.5697e-17 
8020.00 1.3779e-17 
8021.50 1.3657e-17 
8023.00 1.4721e-17 
8024.50 1.5427e-17 
8026.00 8.0977e-18 
8027.50 1.6878e-17 
8029.00 1.4607e-17 
8030.50 1.3386e-17 
8032.00 1.5131e-17 
8033.50 1.8206e-17 
8035.00 1.5640e-17 
8036.50 1.7616e-17 
8038.00 1.8076e-17 
8039.50 1.7438e-17 
8041.00 1.6886e-17 
8042.50 1.6536e-17 
8044.00 1.7210e-17 
8045.50 1.8791e-17 
8047.00 2.0296e-17 
8048.50 2.0602e-17 
8050.00 1.4673e-17 
8051.50 1.4750e-17 
8053.00 1.5782e-17 
8054.50 1.6961e-17 
8056.00 1.7700e-17 
8057.50 1.6723e-17 
8059.00 1.3192e-17 
8060.50 1.9310e-17 
8062.00 1.9498e-17 
8063.50 1.4442e-17 
8065.00 1.3506e-17 
8066.50 1.6350e-17 
8068.00 1.5736e-17 
8069.50 1.7308e-17 
8071.00 1.9569e-17 
8072.50 1.9536e-17 
8074.00 1.8500e-17 
8075.50 1.9829e-17 
8077.00 1.9757e-17 
8078.50 1.8004e-17 
8080.00 1.4633e-17 
8081.50 1.6056e-17 
8083.00 1.9020e-17 
8084.50 1.7886e-17 
8086.00 1.6586e-17 
8087.50 1.7621e-17 
8089.00 1.9938e-17 
8090.50 1.8930e-17 
8092.00 1.9008e-17 
8093.50 1.8296e-17 
8095.00 1.6492e-17 
8096.50 1.7522e-17 
8098.00 1.7395e-17 
8099.50 1.7393e-17 
8101.00 1.7135e-17 
8102.50 1.6000e-17 
8104.00 1.0971e-17 
8105.50 1.5278e-17 
8107.00 1.6962e-17 
8108.50 1.5995e-17 
8110.00 1.3339e-17 
8111.50 1.2808e-17 
8113.00 1.6824e-17 
8114.50 1.7130e-17 
8116.00 1.7270e-17 
8117.50 1.7434e-17 
8119.00 1.6372e-17 
8120.50 1.5390e-17 
8122.00 1.5244e-17 
8123.50 1.5543e-17 
8125.00 1.6205e-17 
8126.50 1.7221e-17 
8128.00 1.6587e-17 
8129.50 1.5982e-17 
8131.00 1.5771e-17 
8132.50 1.5891e-17 
8134.00 1.6092e-17 
8135.50 1.5365e-17 
8137.00 1.4497e-17 
8138.50 1.4507e-17 
8140.00 1.4627e-17 
8141.50 1.2794e-17 
8143.00 1.4897e-17 
8144.50 1.5473e-17 
8146.00 1.4135e-17 
8147.50 1.2427e-17 
8149.00 1.3963e-17 
8150.50 1.5339e-17 
8152.00 1.7447e-17 
8153.50 1.7409e-17 
8155.00 1.5874e-17 
8156.50 1.4936e-17 
8158.00 1.7129e-17 
8159.50 1.5590e-17 
8161.00 1.5314e-17 
8162.50 1.6046e-17 
8164.00 1.5659e-17 
8165.50 1.6789e-17 
8167.00 1.7121e-17 
8168.50 1.5975e-17 
8170.00 1.3742e-17 
8171.50 1.1653e-17 
8173.00 1.3328e-17 
8174.50 1.4501e-17 
8176.00 1.5292e-17 
8177.50 1.6075e-17 
8179.00 1.8689e-17 
8180.50 1.9544e-17 
8182.00 1.4997e-17 
8183.50 1.3875e-17 
8185.00 1.7107e-17 
8186.50 1.8325e-17 
8188.00 1.6068e-17 
8189.50 1.5171e-17 
8191.00 1.5104e-17 
8192.50 1.5476e-17 
8194.00 1.3426e-17 
8195.50 1.5661e-17 
8197.00 1.5376e-17 
8198.50 1.5061e-17 
8200.00 1.5726e-17 
8201.50 1.5646e-17 
8203.00 1.3319e-17 
8204.50 1.3184e-17 
8206.00 1.3681e-17 
8207.50 1.3813e-17 
8209.00 1.2579e-17 
8210.50 1.1627e-17 
8212.00 1.2224e-17 
8213.50 1.4137e-17 
8215.00 1.7335e-17 
8216.50 1.8298e-17 
8218.00 1.7850e-17 
8219.50 1.6462e-17 
8221.00 1.4617e-17 
8222.50 1.3026e-17 
8224.00 1.3657e-17 
8225.50 1.5267e-17 
8227.00 1.6225e-17 
8228.50 1.5976e-17 
8230.00 1.2898e-17 
8231.50 1.6820e-17 
8233.00 1.6685e-17 
8234.50 1.5500e-17 
8236.00 1.4275e-17 
8237.50 1.6036e-17 
8239.00 1.4579e-17 
8240.50 1.6133e-17 
8242.00 1.6541e-17 
8243.50 1.3553e-17 
8245.00 1.3802e-17 
8246.50 1.6066e-17 
8248.00 1.6789e-17 
8249.50 1.6641e-17 
8251.00 1.6244e-17 
8252.50 1.5986e-17 
8254.00 1.4993e-17 
8255.50 1.4327e-17 
8257.00 1.4069e-17 
8258.50 1.4314e-17 
8260.00 1.4356e-17 
8261.50 1.4498e-17 
8263.00 1.5209e-17 
8264.50 1.6469e-17 
8266.00 1.7307e-17 
8267.50 1.6810e-17 
8269.00 1.5376e-17 
8270.50 1.3874e-17 
8272.00 1.2860e-17 
8273.50 1.6302e-17 
8275.00 1.6764e-17 
8276.50 1.4379e-17 
8278.00 1.1546e-17 
8279.50 1.2353e-17 
8281.00 1.9065e-17 
8282.50 2.0409e-17 
8284.00 1.6645e-17 
8285.50 9.7614e-18 
8287.00 1.0372e-17 
8288.50 1.1196e-17 
8290.00 8.6011e-18 
8291.50 7.3311e-18 
8293.00 9.7581e-18 
8294.50 1.9578e-17 
8296.00 1.7041e-17 
8297.50 1.9385e-17 
8299.00 2.0401e-17 
8300.50 8.9691e-18 
8302.00 7.3646e-18 
8303.50 1.1853e-17 
8305.00 1.4377e-17 
8306.50 1.4196e-17 
8308.00 1.3311e-17 
8309.50 1.7363e-17 
8311.00 1.8209e-17 
8312.50 1.8077e-17 
8314.00 1.7860e-17 
8315.50 1.6186e-17 
8317.00 1.4607e-17 
8318.50 1.5384e-17 
8320.00 1.7038e-17 
8321.50 1.6158e-17 
8323.00 1.5396e-17 
8324.50 1.3839e-17 
8326.00 1.3019e-17 
8327.50 1.3434e-17 
8329.00 1.6417e-17 
8330.50 1.5617e-17 
8332.00 1.6233e-17 
8333.50 1.6854e-17 
8335.00 1.5845e-17 
8336.50 1.5416e-17 
8338.00 1.5413e-17 
8339.50 1.5469e-17 
8341.00 1.5567e-17 
8342.50 1.5846e-17 
8344.00 9.9601e-18 
8345.50 1.6620e-17 
8347.00 2.4302e-17 
8348.50 2.6004e-17 
8350.00 1.6917e-17 
8351.50 1.5257e-17 
8353.00 1.7338e-17 
8354.50 2.1909e-17 
8356.00 2.6240e-17 
8357.50 1.5455e-17 
8359.00 1.1429e-17 
8360.50 1.1172e-17 
8362.00 1.4666e-17 
8363.50 1.7104e-17 
8365.00 1.7669e-17 
8366.50 1.4247e-17 
8368.00 9.9667e-18 
8369.50 1.4632e-17 
8371.00 1.4688e-17 
8372.50 1.3726e-17 
8374.00 1.4157e-17 
8375.50 1.7177e-17 
8377.00 1.7533e-17 
8378.50 1.4344e-17 
8380.00 1.5438e-17 
8381.50 1.9220e-17 
8383.00 2.2510e-17 
8384.50 1.8472e-17 
8386.00 1.4143e-17 
8387.50 1.1919e-17 
8389.00 1.3477e-17 
8390.50 1.5264e-17 
8392.00 1.5837e-17 
8393.50 1.6093e-17 
8395.00 1.6261e-17 
8396.50 1.7248e-17 
8398.00 1.8112e-17 
8399.50 1.7412e-17 
8401.00 1.7295e-17 
8402.50 1.9093e-17 
8404.00 1.3196e-17 
8405.50 1.3719e-17 
8407.00 1.4577e-17 
8408.50 1.5096e-17 
8410.00 1.2358e-17 
8411.50 1.5660e-17 
8413.00 1.4582e-17 
8414.50 1.3143e-17 
8416.00 1.4445e-17 
8417.50 1.4950e-17 
8419.00 1.5327e-17 
8420.50 1.5703e-17 
8422.00 1.5855e-17 
8423.50 1.2173e-17 
8425.00 1.5575e-17 
8426.50 1.5736e-17 
8428.00 1.7199e-17 
8429.50 2.9587e-17 
8431.00 3.0065e-17 
8432.50 1.9200e-17 
8434.00 1.4106e-17 
8435.50 2.0987e-17 
8437.00 1.6311e-17 
8438.50 1.4926e-17 
8440.00 1.4277e-17 
8441.50 1.4254e-17 
8443.00 1.4842e-17 
8444.50 1.6127e-17 
8446.00 1.6178e-17 
8447.50 1.5088e-17 
8449.00 1.2000e-17 
8450.50 1.6084e-17 
8452.00 1.5974e-17 
8453.50 1.5246e-17 
8455.00 1.4339e-17 
8456.50 1.5291e-17 
8458.00 1.1591e-17 
8459.50 1.1942e-17 
8461.00 1.3926e-17 
8462.50 1.1970e-17 
8464.00 1.6196e-17 
8465.50 1.7146e-17 
8467.00 1.5247e-17 
8468.50 8.7321e-18 
8470.00 1.2477e-17 
8471.50 1.4550e-17 
8473.00 1.4263e-17 
8474.50 1.1613e-17 
8476.00 1.2211e-17 
8477.50 1.4321e-17 
8479.00 1.4758e-17 
8480.50 1.4129e-17 
8482.00 1.2867e-17 
8483.50 1.4499e-17 
8485.00 1.5170e-17 
8486.50 1.5539e-17 
8488.00 1.5789e-17 
8489.50 1.5449e-17 
8491.00 1.5314e-17 
8492.50 1.5619e-17 
8494.00 1.6392e-17 
8495.50 1.1343e-17 
8497.00 1.3169e-17 
8498.50 1.3776e-17 
8500.00 1.3446e-17 
8501.50 1.2611e-17 
8503.00 1.1778e-17 
8504.50 8.0523e-18 
8506.00 5.9836e-18 
8507.50 1.3547e-17 
8509.00 1.6316e-17 
8510.50 1.6228e-17 
8512.00 1.5192e-17 
8513.50 1.3312e-17 
8515.00 1.1169e-17 
8516.50 1.2229e-17 
8518.00 1.3374e-17 
8519.50 1.4361e-17 
8521.00 1.4659e-17 
8522.50 1.4377e-17 
8524.00 1.4328e-17 
8525.50 1.4452e-17 
8527.00 1.4788e-17 
8528.50 1.3822e-17 
8530.00 1.2939e-17 
8531.50 1.2485e-17 
8533.00 1.3487e-17 
8534.50 1.3841e-17 
8536.00 1.4845e-17 
8537.50 1.6104e-17 
8539.00 1.7642e-17 
8540.50 1.4455e-17 
8542.00 1.3348e-17 
8543.50 1.2933e-17 
8545.00 1.3197e-17 
8546.50 1.4540e-17 
8548.00 1.6030e-17 
8549.50 1.6629e-17 
8551.00 1.6208e-17 
8552.50 1.1794e-17 
8554.00 1.3982e-17 
8555.50 1.4483e-17 
8557.00 1.4201e-17 
8558.50 1.4179e-17 
8560.00 1.4887e-17 
8561.50 1.4675e-17 
8563.00 1.4093e-17 
8564.50 1.3182e-17 
8566.00 1.6574e-17 
8567.50 1.5203e-17 
8569.00 1.3401e-17 
8570.50 1.2484e-17 
8572.00 1.5339e-17 
8573.50 1.6145e-17 
8575.00 1.5126e-17 
8576.50 1.1763e-17 
8578.00 1.2189e-17 
8579.50 1.5454e-17 
8581.00 1.5499e-17 
8582.50 1.2253e-17 
8584.00 9.5896e-18 
8585.50 1.3441e-17 
8587.00 1.4573e-17 
8588.50 1.3918e-17 
8590.00 1.5326e-17 
8591.50 1.3989e-17 
8593.00 1.2702e-17 
8594.50 1.1494e-17 
8596.00 1.0716e-17 
8597.50 1.1177e-17 
8599.00 1.2259e-17 
8600.50 1.2955e-17 
8602.00 1.0853e-17 
8603.50 1.1917e-17 
8605.00 1.3296e-17 
8606.50 1.4534e-17 
8608.00 1.5098e-17 
8609.50 1.4733e-17 
8611.00 1.4956e-17 
8612.50 1.5537e-17 
8614.00 1.6744e-17 
8615.50 1.0694e-17 
8617.00 1.2335e-17 
8618.50 1.5582e-17 
8620.00 2.0113e-17 
8621.50 1.7743e-17 
8623.00 1.7020e-17 
8624.50 1.7887e-17 
8626.00 2.0921e-17 
8627.50 1.5304e-17 
8629.00 1.8842e-17 
8630.50 2.0967e-17 
8632.00 2.0955e-17 
8633.50 6.4923e-18 
8635.00 7.1257e-18 
8636.50 1.2046e-17 
8638.00 2.0877e-17 
8639.50 1.8442e-17 
8641.00 1.6651e-17 
8642.50 1.5913e-17 
8644.00 1.5981e-17 
8645.50 1.3414e-17 
8647.00 1.1968e-17 
8648.50 1.4274e-17 
8650.00 1.8536e-17 
8651.50 8.8009e-18 
8653.00 1.2536e-17 
8654.50 1.5721e-17 
8656.00 1.8081e-17 
8657.50 1.3276e-17 
8659.00 2.1015e-17 
8660.50 1.7766e-17 
8662.00 8.6374e-18 
8663.50 4.6409e-18 
8665.00 6.1168e-18 
8666.50 7.4664e-18 
8668.00 8.8149e-18 
8669.50 1.0504e-17 
8671.00 1.2704e-17 
8672.50 1.5538e-17 
8674.00 1.7945e-17 
8675.50 1.3283e-17 
8677.00 1.2587e-17 
8678.50 1.2658e-17 
8680.00 1.2821e-17 
8681.50 1.0745e-17 
8683.00 1.2613e-17 
8684.50 1.5209e-17 
8686.00 1.7460e-17 
8687.50 1.3584e-17 
8689.00 1.2354e-17 
8690.50 1.1976e-17 
8692.00 1.1792e-17 
8693.50 1.0069e-17 
8695.00 1.0945e-17 
8696.50 1.2432e-17 
8698.00 1.4328e-17 
8699.50 1.6965e-17 
8701.00 1.5105e-17 
8702.50 1.3379e-17 
8704.00 1.1945e-17 
8705.50 1.3103e-17 
8707.00 1.3486e-17 
8708.50 1.3207e-17 
8710.00 1.2763e-17 
8711.50 1.4495e-17 
8713.00 1.3642e-17 
8714.50 1.2815e-17 
8716.00 1.2150e-17 
8717.50 1.4008e-17 
8719.00 1.4602e-17 
8720.50 1.3415e-17 
8722.00 1.1215e-17 
8723.50 1.2477e-17 
8725.00 1.3143e-17 
8726.50 1.3103e-17 
8728.00 1.2554e-17 
8729.50 1.2434e-17 
8731.00 1.3467e-17 
8732.50 1.4064e-17 
8734.00 1.4301e-17 
8735.50 1.3421e-17 
8737.00 1.2282e-17 
8738.50 1.2376e-17 
8740.00 1.3764e-17 
8741.50 1.7230e-17 
8743.00 1.4574e-17 
8744.50 1.1988e-17 
8746.00 9.4919e-18 
8747.50 1.2510e-17 
8749.00 1.3468e-17 
8750.50 1.3675e-17 
8752.00 1.2850e-17 
8753.50 1.3281e-17 
8755.00 1.4340e-17 
8756.50 1.4390e-17 
8758.00 1.2197e-17 
8759.50 1.2228e-17 
8761.00 1.6929e-17 
8762.50 2.0849e-17 
8764.00 2.1041e-17 
8765.50 8.4346e-18 
8767.00 4.2233e-18 
8768.50 6.3526e-18 
8770.00 2.7082e-17 
8771.50 1.6400e-17 
8773.00 1.0705e-17 
8774.50 8.1773e-18 
8776.00 1.6426e-17 
8777.50 1.9027e-17 
8779.00 1.4319e-17 
8780.50 7.0375e-18 
8782.00 5.0811e-18 
8783.50 1.0730e-17 
8785.00 1.3753e-17 
8786.50 1.5277e-17 
8788.00 1.3710e-17 
8789.50 1.3672e-17 
8791.00 1.3956e-17 
8792.50 1.4534e-17 
8794.00 1.6282e-17 
8795.50 1.5224e-17 
8797.00 1.3744e-17 
8798.50 1.1603e-17 
8800.00 1.1468e-17 
8801.50 1.2606e-17 
8803.00 1.3281e-17 
8804.50 1.2893e-17 
8806.00 1.4880e-17 
8807.50 1.5141e-17 
8809.00 1.5093e-17 
8810.50 1.4842e-17 
8812.00 1.3877e-17 
8813.50 1.3505e-17 
8815.00 1.3689e-17 
8816.50 1.6319e-17 
8818.00 1.2966e-17 
8819.50 1.3011e-17 
8821.00 1.4413e-17 
8822.50 1.3817e-17 
8824.00 1.2150e-17 
8825.50 1.3792e-17 
8827.00 1.7997e-17 
8828.50 7.3300e-18 
8830.00 4.4846e-19 
8831.50 -2.8028e-19
8833.00 7.2649e-18 
8834.50 1.5079e-17 
8836.00 1.3900e-17 
8837.50 1.2836e-17 
8839.00 1.3528e-17 
8840.50 1.5406e-17 
8842.00 1.4655e-17 
8843.50 1.3201e-17 
8845.00 1.0704e-17 
8846.50 1.2888e-17 
8848.00 1.3516e-17 
8849.50 1.3292e-17 
8851.00 9.7601e-18 
8852.50 1.2490e-17 
8854.00 1.3169e-17 
8855.50 1.2456e-17 
8857.00 1.3556e-17 
8858.50 1.3993e-17 
8860.00 1.4046e-17 
8861.50 1.3541e-17 
8863.00 1.4775e-17 
8864.50 1.6864e-17 
8866.00 1.6734e-17 
8867.50 9.8305e-18 
8869.00 5.5701e-18 
8870.50 6.6054e-18 
8872.00 8.9584e-18 
8873.50 1.1149e-17 
8875.00 9.6405e-18 
8876.50 1.0842e-17 
8878.00 1.3596e-17 
8879.50 1.6267e-17 
8881.00 1.3092e-17 
8882.50 1.4400e-17 
8884.00 2.1278e-17 
8885.50 3.8578e-17 
8887.00 3.6869e-17 
8888.50 2.7103e-17 
8890.00 -2.1406e-18
8891.50 1.0417e-17 
8893.00 1.1993e-17 
8894.50 1.1180e-17 
8896.00 1.1421e-17 
8897.50 1.4512e-17 
8899.00 1.5388e-17 
8900.50 1.5110e-17 
8902.00 1.5799e-17 
8903.50 1.5613e-17 
8905.00 1.3838e-17 
8906.50 9.5248e-18 
8908.00 1.3654e-17 
8909.50 1.5444e-17 
8911.00 1.5656e-17 
8912.50 1.1284e-17 
8914.00 1.4566e-17 
8915.50 1.4674e-17 
8917.00 1.4243e-17 
8918.50 1.9528e-17 
8920.00 1.7719e-17 
8921.50 1.4092e-17 
8923.00 8.3557e-18 
8924.50 6.4262e-18 
8926.00 1.0453e-17 
8927.50 1.3486e-17 
8929.00 1.4321e-17 
8930.50 9.9707e-18 
8932.00 9.8478e-18 
8933.50 1.0842e-17 
8935.00 1.3427e-17 
8936.50 1.3303e-17 
8938.00 1.4543e-17 
8939.50 1.6743e-17 
8941.00 1.8100e-17 
8942.50 1.1755e-17 
8944.00 8.3705e-18 
8945.50 9.7427e-18 
8947.00 1.3177e-17 
8948.50 1.2269e-17 
8950.00 1.1519e-17 
8951.50 1.5741e-17 
8953.00 1.5624e-17 
8954.50 1.7521e-17 
8956.00 2.0626e-17 
8957.50 1.5722e-17 
8959.00 7.3660e-18 
8960.50 1.2202e-18 
8962.00 -2.4630e-18
8963.50 7.6866e-18 
8965.00 1.0976e-17 
8966.50 1.2916e-17 
8968.00 1.3343e-17 
8969.50 1.2383e-17 
8971.00 1.2618e-17 
8972.50 1.3543e-17 
8974.00 1.5646e-17 
8975.50 1.3227e-17 
8977.00 1.2873e-17 
8978.50 1.6454e-17 
8980.00 1.4461e-17 
8981.50 1.3140e-17 
8983.00 1.2563e-17 
8984.50 1.6681e-17 
8986.00 1.9721e-17 
8987.50 1.8783e-17 
8989.00 1.4867e-17 
8990.50 1.7587e-17 
8992.00 1.4737e-17 
8993.50 1.2407e-17 
8995.00 1.1434e-17 
8996.50 1.2802e-17 
8998.00 1.3698e-17 
8999.50 1.4621e-17 
9001.00 1.7055e-17 
9002.50 9.0564e-18 
9004.00 6.0613e-18 
9005.50 7.8075e-18 
9007.00 1.3376e-17 
9008.50 1.3606e-17 
9010.00 1.2917e-17 
9011.50 1.0417e-17 
9013.00 1.2870e-17 
9014.50 1.2969e-17 
9016.00 1.1947e-17 
9017.50 1.3803e-17 
9019.00 1.2594e-17 
9020.50 1.1439e-17 
9022.00 1.0106e-17 
9023.50 1.1758e-17 
9025.00 1.2394e-17 
9026.50 1.3167e-17 
9028.00 1.7799e-17 
9029.50 1.4129e-17 
9031.00 1.2408e-17 
9032.50 1.2236e-17 
9034.00 1.4827e-17 
9035.50 1.4265e-17 
9037.00 1.3316e-17 
9038.50 1.1844e-17 
9040.00 1.3147e-17 
9041.50 1.3617e-17 
9043.00 1.3708e-17 
9044.50 1.2963e-17 
9046.00 1.4434e-17 
9047.50 1.5837e-17 
9049.00 1.7323e-17 
9050.50 1.2786e-17 
9052.00 1.4087e-17 
9053.50 1.7133e-17 
9055.00 1.3356e-17 
9056.50 1.3267e-17 
9058.00 1.3898e-17 
9059.50 1.5887e-17 
9061.00 1.5842e-17 
9062.50 1.6083e-17 
9064.00 1.6186e-17 
9065.50 1.4204e-17 
9067.00 1.4226e-17 
9068.50 1.3871e-17 
9070.00 1.3008e-17 
9071.50 1.4094e-17 
9073.00 1.5220e-17 
9074.50 1.5618e-17 
9076.00 1.1526e-17 
9077.50 1.4566e-17 
9079.00 1.3460e-17 
9080.50 8.9491e-18 
9082.00 1.0416e-17 
9083.50 1.3333e-17 
9085.00 1.5293e-17 
9086.50 1.3014e-17 
9088.00 1.0053e-17 
9089.50 1.0425e-17 
9091.00 1.2773e-17 
9092.50 1.0224e-17 
9094.00 1.2235e-17 
9095.50 1.3838e-17 
9097.00 1.3874e-17 
9098.50 1.0095e-17 
9100.00 1.1955e-17 
9101.50 1.6795e-17 
9103.00 1.1542e-17 
9104.50 1.0094e-17 
9106.00 9.6547e-18 
9107.50 1.1911e-17 
9109.00 1.3333e-17 
9110.50 1.3437e-17 
9112.00 1.3009e-17 
9113.50 1.3862e-17 
9115.00 1.2422e-17 
9116.50 1.1568e-17 
9118.00 1.2151e-17 
9119.50 1.2751e-17 
9121.00 1.2972e-17 
9122.50 1.3074e-17 
9124.00 1.3074e-17 
9125.50 1.2551e-17 
9127.00 1.2389e-17 
9128.50 1.3220e-17 
9130.00 1.3938e-17 
9131.50 1.4339e-17 
9133.00 1.4668e-17 
9134.50 1.4248e-17 
9136.00 1.3863e-17 
9137.50 1.3676e-17 
9139.00 1.4044e-17 
9140.50 1.2448e-17 
9142.00 1.2433e-17 
9143.50 1.3158e-17 
9145.00 1.2766e-17 
9146.50 1.1887e-17 
9148.00 1.1434e-17 
9149.50 1.2445e-17 
9151.00 1.4002e-17 
9152.50 1.1489e-17 
9154.00 6.0540e-18 
9155.50 8.2191e-18 
9157.00 1.3529e-17 
9158.50 1.7407e-17 
9160.00 1.4539e-17 
9161.50 6.8146e-18 
9163.00 7.3392e-18 
9164.50 1.4175e-17 
9166.00 1.2637e-17 
9167.50 1.1378e-17 
9169.00 1.0492e-17 
9170.50 1.2024e-17 
9172.00 1.2298e-17 
9173.50 1.1878e-17 
9175.00 1.0551e-17 
9176.50 1.2005e-17 
9178.00 1.1739e-17 
9179.50 1.1375e-17 
9181.00 1.3552e-17 
9182.50 1.3414e-17 
9184.00 1.3453e-17 
9185.50 1.3798e-17 
9187.00 1.5878e-17 
9188.50 1.5511e-17 
9190.00 1.4441e-17 
9191.50 1.3928e-17 
9193.00 1.4393e-17 
9194.50 1.4324e-17 
9196.00 1.2739e-17 
9197.50 1.2696e-17 
9199.00 1.3576e-17 
9200.50 1.5113e-17 
9202.00 1.2584e-17 
9203.50 1.1644e-17 
9205.00 1.0795e-17 
9206.50 9.7602e-18 
9208.00 1.2190e-17 
9209.50 1.3094e-17 
9211.00 1.2965e-17 
9212.50 9.7497e-18 
9214.00 1.1868e-17 
9215.50 1.4550e-17 
9217.00 1.2869e-17 
9218.50 8.8702e-18 
9220.00 7.9693e-18 
9221.50 1.2298e-17 
9223.00 1.7129e-17 
9224.50 1.7600e-17 
9226.00 1.6658e-17 
9227.50 1.8486e-17 
9229.00 1.3700e-17 
9230.50 1.0010e-17 
9232.00 1.0054e-17 
9233.50 1.4620e-17 
9235.00 1.5806e-17 
9236.50 1.4733e-17 
9238.00 9.5853e-18 
9239.50 1.2682e-17 
9241.00 1.6551e-17 
9242.50 1.4208e-17 
9244.00 1.3232e-17 
9245.50 1.2315e-17 
9247.00 1.1015e-17 
9248.50 1.0789e-17 
9250.00 1.1770e-17 
9251.50 1.3446e-17 
9253.00 1.4960e-17 
9254.50 1.2720e-17 
9256.00 1.0827e-17 
9257.50 1.1168e-17 
9259.00 1.2270e-17 
9260.50 1.2867e-17 
9262.00 1.3191e-17 
9263.50 1.2104e-17 
9265.00 1.0819e-17 
9266.50 9.4121e-18 
9268.00 1.1974e-17 
9269.50 1.2969e-17 
9271.00 1.3487e-17 
9272.50 1.2629e-17 
9274.00 1.1671e-17 
9275.50 1.1474e-17 
9277.00 1.1758e-17 
9278.50 1.3295e-17 
9280.00 1.4832e-17 
9281.50 1.6202e-17 
9283.00 1.2887e-17 
9284.50 1.0407e-17 
9286.00 9.2198e-18 
9287.50 1.0519e-17 
9289.00 1.3221e-17 
9290.50 1.2997e-17 
9292.00 1.1041e-17 
9293.50 1.2483e-17 
9295.00 1.4977e-17 
9296.50 1.7107e-17 
9298.00 1.2389e-17 
9299.50 1.1233e-17 
9301.00 1.2358e-17 
9302.50 1.9074e-17 
9304.00 2.0418e-17 
9305.50 1.9927e-17 
9307.00 1.8341e-17 
9308.50 2.4237e-17 
9310.00 2.8724e-17 
9311.50 3.2027e-17 
9313.00 2.0817e-17 
9314.50 6.9477e-18 
9316.00 6.6712e-19 
9317.50 6.7852e-18 
9319.00 1.1507e-17 
9320.50 1.3302e-17 
9322.00 1.4125e-17 
9323.50 9.3169e-18 
9325.00 7.5616e-18 
9326.50 6.2476e-18 
9328.00 7.8168e-18 
9329.50 6.4561e-18 
9331.00 7.1543e-18 
9332.50 1.3747e-17 
9334.00 1.4842e-17 
9335.50 1.5214e-17 
9337.00 1.5251e-17 
9338.50 1.0853e-17 
9340.00 8.3922e-18 
9341.50 6.3172e-18 
9343.00 1.6583e-17 
9344.50 1.3334e-17 
9346.00 1.1212e-17 
9347.50 1.2080e-17 
9349.00 1.3327e-17 
9350.50 1.3127e-17 
9352.00 1.1377e-17 
9353.50 9.2874e-18 
9355.00 1.0074e-17 
9356.50 1.1747e-17 
9358.00 1.2575e-17 
9359.50 1.3194e-17 
9361.00 1.3515e-17 
9362.50 1.1850e-17 
9364.00 1.2131e-17 
9365.50 1.3032e-17 
9367.00 1.5626e-17 
9368.50 1.3591e-17 
9370.00 1.2524e-17 
9371.50 1.1557e-17 
9373.00 2.8009e-17 
9374.50 2.3181e-17 
9376.00 1.5582e-17 
9377.50 2.4859e-18 
9379.00 5.4298e-18 
9380.50 8.2007e-18 
9382.00 1.2384e-17 
9383.50 1.4541e-17 
9385.00 1.5273e-17 
9386.50 1.4922e-17 
9388.00 1.0099e-17 
9389.50 9.4797e-18 
9391.00 1.0033e-17 
9392.50 1.6736e-17 
9394.00 1.3842e-17 
9395.50 1.1280e-17 
9397.00 1.9466e-17 
9398.50 1.5232e-17 
9400.00 1.2376e-17 
9401.50 1.1034e-17 
9403.00 1.3731e-17 
9404.50 1.4457e-17 
9406.00 1.3885e-17 
9407.50 1.2353e-17 
9409.00 1.2856e-17 
9410.50 1.3988e-17 
9412.00 1.3696e-17 
9413.50 1.4658e-17 
9415.00 1.5418e-17 
9416.50 1.3432e-17 
9418.00 1.1813e-17 
9419.50 1.2389e-17 
9421.00 1.9484e-17 
9422.50 1.2360e-17 
9424.00 1.0874e-17 
9425.50 1.3630e-17 
9427.00 1.5219e-17 
9428.50 1.5281e-17 
9430.00 1.4911e-17 
9431.50 1.5068e-17 
9433.00 1.3042e-17 
9434.50 1.1269e-17 
9436.00 1.6793e-17 
9437.50 8.7295e-18 
9439.00 -5.7774e-18
9440.50 -5.6346e-17
9442.00 -4.0798e-17
9443.50 -2.8642e-17
9445.00 -1.2149e-17
9446.50 5.6031e-18 
9448.00 1.1440e-17 
9449.50 1.4179e-17 
9451.00 1.2798e-17 
9452.50 1.4537e-17 
9454.00 1.6844e-17 
9455.50 2.1649e-17 
9457.00 2.1345e-17 
9458.50 2.0856e-17 
9460.00 1.8647e-17 
9461.50 1.7067e-17 
9463.00 1.5306e-17 
9464.50 1.1564e-17 
9466.00 1.1773e-17 
9467.50 1.2294e-17 
9469.00 1.3413e-17 
9470.50 1.2256e-17 
9472.00 1.1900e-17 
9473.50 1.1695e-17 
9475.00 1.7545e-17 
9476.50 1.8477e-17 
9478.00 1.8866e-17 
9479.50 1.0631e-17 
9481.00 1.2042e-17 
9482.50 1.3412e-17 
9484.00 1.5668e-17 
9485.50 1.5399e-17 
9487.00 1.4678e-17 
9488.50 1.2275e-17 
9490.00 1.1177e-17 
9491.50 1.0691e-17 
9493.00 1.0449e-17 
9494.50 8.2116e-18 
9496.00 7.6648e-18 
9497.50 7.5580e-18 
9499.00 1.8200e-17 
9500.50 2.2094e-17 
9502.00 2.5507e-17 
9503.50 2.5055e-17 
9505.00 1.9641e-17 
9506.50 1.4440e-17 
9508.00 8.9177e-18 
9509.50 1.1909e-17 
9511.00 1.4053e-17 
9512.50 1.5437e-17 
9514.00 1.2848e-17 
9515.50 1.2215e-17 
9517.00 1.3952e-17 
9518.50 2.0218e-17 
9520.00 2.1303e-17 
9521.50 1.9579e-17 
9523.00 9.8682e-18 
9524.50 9.1718e-18 
9526.00 1.0841e-17 
9527.50 1.0385e-17 
9529.00 1.0643e-17 
9530.50 1.0990e-17 
9532.00 1.5833e-17 
9533.50 1.5521e-17 
9535.00 1.4990e-17 
9536.50 1.1685e-17 
9538.00 1.6215e-17 
9539.50 1.8100e-17 
9541.00 1.1854e-17 
9542.50 9.0944e-18 
9544.00 8.5816e-18 
9545.50 1.1531e-17 
9547.00 1.3787e-17 
9548.50 1.4124e-17 
9550.00 1.3062e-17 
9551.50 1.5352e-17 
9553.00 1.9229e-17 
9554.50 2.5467e-17 
9556.00 1.6614e-17 
9557.50 1.5374e-17 
9559.00 1.5274e-17 
9560.50 1.5758e-17 
9562.00 1.3380e-17 
9563.50 1.0881e-17 
9565.00 1.8436e-17 
9566.50 1.0278e-17 
9568.00 3.7333e-18 
9569.50 6.6587e-18 
9571.00 8.5829e-18 
9572.50 9.9232e-18 
9574.00 1.0528e-17 
9575.50 1.2931e-17 
9577.00 1.3577e-17 
9578.50 1.1355e-17 
9580.00 1.0315e-17 
9581.50 1.0788e-17 
9583.00 1.3264e-17 
9584.50 1.4653e-17 
9586.00 1.4615e-17 
9587.50 1.3714e-17 
9589.00 1.0227e-17 
9590.50 7.9604e-18 
9592.00 5.2149e-18 
9593.50 1.3841e-17 
9595.00 1.5359e-17 
9596.50 1.6088e-17 
9598.00 1.2276e-17 
9599.50 1.1868e-17 
9601.00 1.1651e-17 
9602.50 1.5691e-17 
9604.00 1.5740e-17 
9605.50 1.5358e-17 
9607.00 8.3123e-18 
9608.50 1.3344e-17 
9610.00 1.6657e-17 
9611.50 1.4095e-17 
9613.00 1.1808e-17 
9614.50 1.1317e-17 
9616.00 1.5803e-17 
9617.50 1.2775e-17 
9619.00 1.1880e-17 
9620.50 1.3954e-17 
9622.00 1.3901e-17 
9623.50 1.2950e-17 
9625.00 1.0140e-17 
9626.50 1.0613e-17 
9628.00 1.1613e-17 
9629.50 1.3664e-17 
9631.00 9.5971e-18 
9632.50 1.0723e-17 
9634.00 1.4727e-17 
9635.50 1.6071e-17 
9637.00 1.5186e-17 
9638.50 1.3380e-17 
9640.00 1.1774e-17 
9641.50 1.1896e-17 
9643.00 1.2312e-17 
9644.50 1.1743e-17 
9646.00 1.1185e-17 
9647.50 1.0573e-17 
9649.00 1.3518e-17 
9650.50 1.5365e-17 
9652.00 1.7127e-17 
9653.50 1.4322e-17 
9655.00 1.1835e-17 
9656.50 9.9533e-18 
9658.00 1.5486e-17 
9659.50 1.5728e-17 
9661.00 1.5592e-17 
9662.50 1.2216e-17 
9664.00 1.1501e-17 
9665.50 1.1324e-17 
9667.00 1.3499e-17 
9668.50 1.4864e-17 
9670.00 1.5396e-17 
9671.50 1.3966e-17 
9673.00 1.3641e-17 
9674.50 1.3619e-17 
9676.00 1.4257e-17 
9677.50 1.2255e-17 
9679.00 1.2436e-17 
9680.50 1.6391e-17 
9682.00 2.1259e-17 
9683.50 1.9792e-17 
9685.00 9.1165e-18 
9686.50 1.2477e-17 
9688.00 1.3714e-17 
9689.50 1.4049e-17 
9691.00 1.4009e-17 
9692.50 1.4025e-17 
9694.00 1.4094e-17 
9695.50 1.6204e-17 
9697.00 1.8871e-17 
9698.50 2.3585e-17 
9700.00 1.1442e-17 
9701.50 9.2345e-18 
9703.00 1.0018e-17 
9704.50 1.1449e-17 
9706.00 1.0775e-17 
9707.50 9.0826e-18 
9709.00 1.0573e-17 
9710.50 1.3380e-17 
9712.00 1.7671e-17 
9713.50 1.1679e-17 
9715.00 9.2894e-18 
9716.50 6.8115e-18 
9718.00 1.6885e-17 
9719.50 1.7935e-17 
9721.00 1.7854e-17 
9722.50 5.3736e-18 
9724.00 8.2528e-18 
9725.50 1.3651e-17 
9727.00 1.2709e-17 
9728.50 1.1508e-17 
9730.00 1.0058e-17 
9731.50 1.3353e-17 
9733.00 1.4155e-17 
9734.50 1.4897e-17 
9736.00 1.3724e-17 
9737.50 1.5844e-17 
9739.00 1.8381e-17 
9740.50 5.4261e-18 
9742.00 6.9678e-18 
9743.50 9.1947e-18 
9745.00 1.6985e-17 
9746.50 1.5763e-17 
9748.00 1.4240e-17 
9749.50 8.3246e-18 
9751.00 1.1368e-17 
9752.50 1.4681e-17 
9754.00 1.0251e-17 
9755.50 1.0021e-17 
9757.00 9.8308e-18 
9758.50 1.2705e-17 
9760.00 1.2867e-17 
9761.50 1.3018e-17 
9763.00 1.2000e-17 
9764.50 1.3327e-17 
9766.00 1.4650e-17 
9767.50 9.8203e-18 
9769.00 1.0844e-17 
9770.50 1.1864e-17 
9772.00 1.1777e-17 
9773.50 1.2468e-17 
9775.00 1.3157e-17 
9776.50 1.6809e-17 
9778.00 1.5143e-17 
9779.50 1.3479e-17 
9781.00 1.6530e-17 
9782.50 1.4993e-17 
9784.00 1.3438e-17 
9785.50 1.4575e-17 
9787.00 1.7972e-17 
9788.50 2.1466e-17 
9790.00 2.8854e-17 
9791.50 2.3813e-17 
9793.00 1.8482e-17 
9794.50 8.2031e-18 
9796.00 1.3766e-17 
9797.50 1.9921e-17 
9799.00 1.8639e-17 
9800.50 9.5776e-18 
9802.00 -4.9678e-19
9803.50 -5.1246e-18
9805.00 3.4976e-18 
9806.50 1.3600e-17 
9808.00 5.7832e-18 
9809.50 8.1567e-18 
9811.00 1.1424e-17 
9812.50 1.0956e-17 
9814.00 1.0289e-17 
9815.50 9.4739e-18 
9817.00 1.3434e-17 
9818.50 1.2281e-17 
9820.00 1.0345e-17 
9821.50 1.7396e-17 
9823.00 1.6625e-17 
9824.50 1.4656e-17 
9826.00 1.3055e-17 
9827.50 1.3190e-17 
9829.00 1.3658e-17 
9830.50 1.0704e-17 
9832.00 8.6168e-18 
9833.50 5.7903e-18 
9835.00 1.1370e-17 
9836.50 1.3261e-17 
9838.00 1.5109e-17 
9839.50 1.4920e-17 
9841.00 1.5515e-17 
9842.50 1.6747e-17 
9844.00 1.8742e-17 
9845.50 1.8315e-17 
9847.00 1.6473e-17 
9848.50 1.7040e-17 
9850.00 1.3863e-17 
9851.50 5.7763e-18 
9853.00 6.0483e-18 
9854.50 7.8345e-18 
9856.00 1.2513e-17 
9857.50 1.3286e-17 
9859.00 1.3970e-17 
9860.50 1.5336e-17 
9862.00 1.2602e-17 
9863.50 1.2393e-17 
9865.00 1.5421e-17 
9866.50 1.3673e-17 
9868.00 1.3906e-17 
9869.50 1.8266e-17 
9871.00 2.3981e-17 
9872.50 2.3345e-17 
9874.00 4.3579e-18 
9875.50 -3.8971e-18
9877.00 -6.8422e-18
9878.50 5.6879e-18 
9880.00 9.6275e-18 
9881.50 1.2143e-17 
9883.00 1.1579e-17 
9884.50 1.2912e-17 
9886.00 1.3776e-17 
9887.50 1.1507e-17 
9889.00 1.2541e-17 
9890.50 1.3541e-17 
9892.00 1.9430e-17 
9893.50 1.8966e-17 
9895.00 1.8501e-17 
9896.50 1.1201e-17 
9898.00 9.1648e-18 
9899.50 6.9513e-18 
9901.00 1.2780e-17 
9902.50 1.5303e-17 
9904.00 1.8267e-17 
9905.50 1.5083e-17 
9907.00 1.6137e-17 
9908.50 1.8409e-17 
9910.00 2.2339e-17 
9911.50 2.3689e-17 
9913.00 2.5078e-17 
9914.50 2.8465e-17 
9916.00 2.0288e-17 
9917.50 -1.1803e-18
9919.00 -2.1517e-18
9920.50 4.6679e-19 
9922.00 9.1582e-18 
9923.50 1.2039e-17 
9925.00 1.2371e-17 
9926.50 9.4306e-18 
9928.00 9.7456e-18 
9929.50 1.0844e-17 
9931.00 1.6032e-17 
9932.50 1.6473e-17 
9934.00 1.6770e-17 
9935.50 1.7087e-17 
9937.00 1.7826e-17 
9938.50 1.8218e-17 
9940.00 1.5862e-17 
9941.50 1.1875e-17 
9943.00 8.3352e-18 
9944.50 1.0525e-17 
9946.00 1.6692e-17 
9947.50 2.3481e-17 
9949.00 9.0961e-18 
9950.50 3.5732e-18 
9952.00 -2.9582e-18
9953.50 1.6871e-17 
9955.00 2.5247e-17 
9956.50 3.5701e-17 
9958.00 1.3225e-17 
9959.50 9.8524e-18 
9961.00 1.2005e-17 
9962.50 1.3702e-17 
9964.00 1.3171e-17 
9965.50 1.0148e-17 
9967.00 1.3652e-17 
9968.50 1.6965e-17 
9970.00 2.5179e-17 
9971.50 2.2859e-17 
9973.00 2.0348e-17 
9974.50 1.1510e-17 
9976.00 8.2168e-18 
9977.50 6.4079e-18 
9979.00 1.1973e-17 
9980.50 1.6184e-17 
9982.00 1.9838e-17 
9983.50 1.4206e-17 
9985.00 1.5799e-17 
9986.50 1.7582e-17 
9988.00 1.4889e-17 
9989.50 1.5864e-17 
9991.00 1.7559e-17 
9992.50 1.9139e-17 
9994.00 1.8017e-17 
9995.50 1.5332e-17 
9997.00 1.7157e-17 
9998.50 1.8021e-17 
10000.0 1.9156e-17 
10001.5 1.3458e-17 
10003.0 1.0943e-17 
10004.5 9.2346e-18 
10006.0 1.2695e-17 
10007.5 1.5040e-17 
10009.0 1.9179e-17 
10010.5 2.2513e-17 
10012.0 2.5764e-17 
10013.5 4.2420e-17 
10015.0 8.1603e-18 
10016.5 -2.3941e-17
10018.0 -1.5792e-17
10019.5 3.1608e-18 
10021.0 2.7047e-17 
10022.5 2.6206e-17 
10024.0 2.5531e-17 
10025.5 2.4502e-17 
10027.0 -7.6232e-18
10028.5 -1.3699e-17
10030.0 -1.1351e-17
10031.5 6.8231e-18 
10033.0 1.4807e-17 
10034.5 2.1842e-17 
10036.0 1.8627e-17 
10037.5 1.7774e-17 
10039.0 2.3109e-17 
10040.5 1.4601e-17 
10042.0 9.2809e-18 
10043.5 2.8680e-17 
10045.0 2.9696e-17 
10046.5 3.0718e-17 
10048.0 1.9773e-17 
10049.5 1.8587e-17 
10051.0 1.7577e-17 
10052.5 1.5020e-17 
10054.0 1.5929e-17 
10055.5 1.8520e-17 
10057.0 2.2417e-17 
10058.5 2.3668e-17 
10060.0 2.4254e-17 
10061.5 2.2426e-17 
10063.0 2.0886e-17 
10064.5 1.6782e-17 
10066.0 1.3766e-17 
10067.5 1.2197e-17 
10069.0 1.8119e-17 
10070.5 1.3834e-17 
10072.0 9.8616e-18 
10073.5 1.1878e-17 
10075.0 1.4097e-17 
10076.5 1.7063e-17 
10078.0 1.6772e-17 
10079.5 2.0329e-17 
10081.0 2.7591e-17 
10082.5 3.3690e-17 
10084.0 2.5882e-17 
10085.5 -5.0968e-18
10087.0 2.2266e-18 
10088.5 8.8035e-18 
10090.0 2.9226e-17 
10091.5 2.2897e-17 
10093.0 1.8568e-17 
10094.5 2.1859e-17 
10096.0 2.0781e-17 
10097.5 1.9665e-17 
10099.0 1.9102e-17 
10100.5 1.9211e-17 
10102.0 1.9441e-17 
10103.5 1.2724e-17 
10105.0 7.4693e-18 
10106.5 -2.4048e-18
10108.0 -2.1819e-18
10109.5 1.1443e-18 
10111.0 1.5511e-17 
10112.5 1.6063e-17 
10114.0 1.7041e-17 
10115.5 2.4708e-17 
10117.0 2.4405e-17 
10118.5 2.4135e-17 
10120.0 2.0909e-17 
10121.5 3.1043e-17 
10123.0 4.5109e-17 
10124.5 6.8669e-19 
10126.0 -1.4769e-17
10127.5 -3.3449e-17
10129.0 -3.5378e-18
10130.5 1.1750e-17 
10132.0 3.4830e-17 
10133.5 2.2268e-17 
10135.0 1.5445e-17 
10136.5 1.5407e-17 
10138.0 1.8168e-17 
10139.5 2.0559e-17 
10141.0 1.6831e-17 
10142.5 1.7165e-17 
10144.0 1.7741e-17 
10145.5 1.6426e-17 
10147.0 1.5035e-17 
10148.5 1.2349e-17 
10150.0 1.9825e-17 
10151.5 2.1133e-17 
10153.0 1.6295e-17 
10154.5 9.2808e-18 
10156.0 5.6325e-18 
10157.5 1.0897e-17 
10159.0 1.2321e-17 
10160.5 1.3664e-17 
10162.0 8.9179e-18 
10163.5 1.4035e-17 
10165.0 2.2235e-17 
10166.5 1.7805e-17 
10168.0 2.0655e-17 
10169.5 3.0331e-17 
10171.0 3.6032e-17 
10172.5 3.4703e-17 
10174.0 1.4170e-17 
10175.5 2.7809e-18 
10177.0 -3.9367e-18
10178.5 3.4863e-17 
10180.0 2.6927e-17 
10181.5 1.7793e-17 
10183.0 3.1224e-17 
10184.5 2.8763e-17 
10186.0 2.1016e-17 
10187.5 7.9568e-18 
10189.0 3.0310e-18 
10190.5 -1.3682e-18
10192.0 -1.8825e-17
10193.5 -2.4195e-17
10195.0 2.0552e-17 
10196.5 1.3742e-17 
10198.0 7.3789e-18 
10199.5 1.1520e-17 
