Wavelength (Angstroms) Flux (erg/s/cm2/A)
# start
3400.00 0
3401.50 1.1872e-16 
3403.00 1.2265e-16 
3404.50 1.2514e-16 
3406.00 1.2984e-16 
3407.50 1.0869e-16 
3409.00 9.5098e-17 
3410.50 8.4281e-17 
3412.00 1.1896e-16 
3413.50 1.4278e-16 
3415.00 1.3738e-16 
3416.50 1.1613e-16 
3418.00 7.8431e-17 
3419.50 9.5708e-17 
3421.00 1.4922e-16 
3422.50 1.6359e-16 
3424.00 1.4853e-16 
3425.50 1.5063e-16 
3427.00 1.6332e-16 
3428.50 1.7869e-16 
3430.00 1.7955e-16 
3431.50 1.9494e-16 
3433.00 1.9721e-16 
3434.50 2.0339e-16 
3436.00 2.1783e-16 
3437.50 2.0166e-16 
3439.00 2.1753e-16 
3440.50 2.1974e-16 
3442.00 2.1784e-16 
3443.50 2.2152e-16 
3445.00 2.2458e-16 
3446.50 2.3843e-16 
3448.00 2.3142e-16 
3449.50 1.8279e-16 
3451.00 1.7784e-16 
3452.50 2.2178e-16 
3454.00 2.2388e-16 
3455.50 2.2401e-16 
3457.00 2.1787e-16 
3458.50 2.2048e-16 
3460.00 2.0545e-16 
3461.50 2.1855e-16 
3463.00 2.0517e-16 
3464.50 1.9980e-16 
3466.00 1.9916e-16 
3467.50 1.9355e-16 
3469.00 1.9069e-16 
3470.50 1.8610e-16 
3472.00 1.8698e-16 
3473.50 1.7746e-16 
3475.00 1.7530e-16 
3476.50 1.7546e-16 
3478.00 1.7429e-16 
3479.50 1.6798e-16 
3481.00 1.5418e-16 
3482.50 1.5121e-16 
3484.00 1.6181e-16 
3485.50 1.5186e-16 
3487.00 1.5422e-16 
3488.50 1.6375e-16 
3490.00 1.5053e-16 
3491.50 1.5533e-16 
3493.00 1.5292e-16 
3494.50 1.4071e-16 
3496.00 1.3112e-16 
3497.50 1.3765e-16 
3499.00 1.5124e-16 
3500.50 1.4947e-16 
3502.00 1.4038e-16 
3503.50 1.5029e-16 
3505.00 1.4989e-16 
3506.50 1.5559e-16 
3508.00 1.5751e-16 
3509.50 1.5976e-16 
3511.00 1.5260e-16 
3512.50 1.6199e-16 
3514.00 1.4763e-16 
3515.50 1.5431e-16 
3517.00 1.3760e-16 
3518.50 1.4582e-16 
3520.00 1.4595e-16 
3521.50 1.4492e-16 
3523.00 1.5347e-16 
3524.50 1.5190e-16 
3526.00 1.4744e-16 
3527.50 1.3412e-16 
3529.00 1.3815e-16 
3530.50 1.3692e-16 
3532.00 1.3953e-16 
3533.50 1.2406e-16 
3535.00 1.3025e-16 
3536.50 1.3034e-16 
3538.00 1.3217e-16 
3539.50 1.3805e-16 
3541.00 1.2240e-16 
3542.50 1.2221e-16 
3544.00 1.3216e-16 
3545.50 1.2599e-16 
3547.00 1.1559e-16 
3548.50 1.2106e-16 
3550.00 1.1146e-16 
3551.50 1.1601e-16 
3553.00 1.1814e-16 
3554.50 1.1542e-16 
3556.00 1.1653e-16 
3557.50 1.1312e-16 
3559.00 1.1421e-16 
3560.50 1.1008e-16 
3562.00 1.1250e-16 
3563.50 1.0951e-16 
3565.00 9.8573e-17 
3566.50 1.0609e-16 
3568.00 1.1402e-16 
3569.50 1.0722e-16 
3571.00 9.9168e-17 
3572.50 1.0402e-16 
3574.00 1.0540e-16 
3575.50 1.0061e-16 
3577.00 1.0467e-16 
3578.50 1.0212e-16 
3580.00 1.0782e-16 
3581.50 1.0141e-16 
3583.00 9.4412e-17 
3584.50 9.6508e-17 
3586.00 9.6769e-17 
3587.50 9.4104e-17 
3589.00 1.0002e-16 
3590.50 9.3134e-17 
3592.00 9.2866e-17 
3593.50 9.8527e-17 
3595.00 9.4511e-17 
3596.50 9.0039e-17 
3598.00 9.6208e-17 
3599.50 8.5727e-17 
3601.00 8.2962e-17 
3602.50 8.5645e-17 
3604.00 8.1315e-17 
3605.50 8.3898e-17 
3607.00 8.5838e-17 
3608.50 9.2205e-17 
3610.00 9.3040e-17 
3611.50 8.5815e-17 
3613.00 8.4155e-17 
3614.50 7.8676e-17 
3616.00 8.3777e-17 
3617.50 8.6092e-17 
3619.00 8.5787e-17 
3620.50 7.8637e-17 
3622.00 8.0645e-17 
3623.50 8.2125e-17 
3625.00 7.8378e-17 
3626.50 8.1297e-17 
3628.00 8.6427e-17 
3629.50 8.1270e-17 
3631.00 7.8273e-17 
3632.50 7.7509e-17 
3634.00 8.9297e-17 
3635.50 8.7866e-17 
3637.00 7.9414e-17 
3638.50 7.5584e-17 
3640.00 8.1368e-17 
3641.50 8.0549e-17 
3643.00 8.0700e-17 
3644.50 7.7913e-17 
3646.00 7.3754e-17 
3647.50 7.7628e-17 
3649.00 8.2575e-17 
3650.50 7.7690e-17 
3652.00 7.4945e-17 
3653.50 7.7900e-17 
3655.00 8.0661e-17 
3656.50 7.9124e-17 
3658.00 7.8059e-17 
3659.50 7.6357e-17 
3661.00 7.6289e-17 
3662.50 7.8699e-17 
3664.00 6.9321e-17 
3665.50 7.2392e-17 
3667.00 7.7670e-17 
3668.50 7.5005e-17 
3670.00 7.7594e-17 
3671.50 7.9810e-17 
3673.00 7.7260e-17 
3674.50 7.7061e-17 
3676.00 8.0992e-17 
3677.50 8.2856e-17 
3679.00 7.8076e-17 
3680.50 7.9883e-17 
3682.00 8.5352e-17 
3683.50 8.5576e-17 
3685.00 8.9698e-17 
3686.50 8.7370e-17 
3688.00 8.4327e-17 
3689.50 7.6355e-17 
3691.00 8.0766e-17 
3692.50 8.1019e-17 
3694.00 7.7831e-17 
3695.50 8.2032e-17 
3697.00 7.3605e-17 
3698.50 7.1795e-17 
3700.00 7.3490e-17 
3701.50 8.1518e-17 
3703.00 8.0746e-17 
3704.50 7.7591e-17 
3706.00 7.8688e-17 
3707.50 7.4959e-17 
3709.00 7.4248e-17 
3710.50 8.2663e-17 
3712.00 7.9630e-17 
3713.50 7.9307e-17 
3715.00 7.6174e-17 
3716.50 8.3480e-17 
3718.00 7.6708e-17 
3719.50 7.8332e-17 
3721.00 7.6182e-17 
3722.50 7.7751e-17 
3724.00 8.0034e-17 
3725.50 7.4408e-17 
3727.00 7.6051e-17 
3728.50 7.4727e-17 
3730.00 7.4363e-17 
3731.50 6.8301e-17 
3733.00 6.9364e-17 
3734.50 7.1241e-17 
3736.00 7.0498e-17 
3737.50 6.8037e-17 
3739.00 7.4320e-17 
3740.50 7.2370e-17 
3742.00 7.6497e-17 
3743.50 7.6388e-17 
3745.00 6.9102e-17 
3746.50 7.1282e-17 
3748.00 7.6617e-17 
3749.50 7.1158e-17 
3751.00 7.6424e-17 
3752.50 7.5862e-17 
3754.00 7.1810e-17 
3755.50 6.6512e-17 
3757.00 7.0221e-17 
3758.50 7.2772e-17 
3760.00 7.3105e-17 
3761.50 7.1227e-17 
3763.00 7.3252e-17 
3764.50 7.6621e-17 
3766.00 8.2994e-17 
3767.50 7.9261e-17 
3769.00 7.4939e-17 
3770.50 7.2514e-17 
3772.00 7.3382e-17 
3773.50 7.3083e-17 
3775.00 7.3777e-17 
3776.50 7.4981e-17 
3778.00 7.7481e-17 
3779.50 7.7781e-17 
3781.00 7.8383e-17 
3782.50 7.8528e-17 
3784.00 8.0028e-17 
3785.50 7.7845e-17 
3787.00 7.6812e-17 
3788.50 7.3255e-17 
3790.00 7.5750e-17 
3791.50 7.4203e-17 
3793.00 7.6189e-17 
3794.50 7.3336e-17 
3796.00 7.4443e-17 
3797.50 7.3715e-17 
3799.00 7.1264e-17 
3800.50 6.8395e-17 
3802.00 7.2550e-17 
3803.50 7.6129e-17 
3805.00 6.9429e-17 
3806.50 6.1864e-17 
3808.00 6.8834e-17 
3809.50 7.1607e-17 
3811.00 7.3487e-17 
3812.50 6.6404e-17 
3814.00 6.3506e-17 
3815.50 7.0161e-17 
3817.00 7.6772e-17 
3818.50 7.5145e-17 
3820.00 7.1170e-17 
3821.50 7.2896e-17 
3823.00 7.3563e-17 
3824.50 7.0351e-17 
3826.00 6.7342e-17 
3827.50 7.6483e-17 
3829.00 7.1748e-17 
3830.50 7.3364e-17 
3832.00 7.6437e-17 
3833.50 7.4790e-17 
3835.00 6.7602e-17 
3836.50 7.1219e-17 
3838.00 7.5289e-17 
3839.50 7.4812e-17 
3841.00 7.2692e-17 
3842.50 7.1700e-17 
3844.00 7.4650e-17 
3845.50 7.3740e-17 
3847.00 7.6537e-17 
3848.50 7.5618e-17 
3850.00 7.1823e-17 
3851.50 7.1946e-17 
3853.00 7.6757e-17 
3854.50 7.1362e-17 
3856.00 6.8489e-17 
3857.50 6.7856e-17 
3859.00 7.5330e-17 
3860.50 7.5550e-17 
3862.00 7.3544e-17 
3863.50 6.9246e-17 
3865.00 7.0916e-17 
3866.50 7.1804e-17 
3868.00 7.1469e-17 
3869.50 7.2059e-17 
3871.00 6.9443e-17 
3872.50 7.1809e-17 
3874.00 7.1636e-17 
3875.50 7.3357e-17 
3877.00 7.2176e-17 
3878.50 7.3542e-17 
3880.00 6.4747e-17 
3881.50 7.0583e-17 
3883.00 7.6427e-17 
3884.50 7.0837e-17 
3886.00 7.7249e-17 
3887.50 7.1344e-17 
3889.00 7.5084e-17 
3890.50 7.3707e-17 
3892.00 7.6714e-17 
3893.50 7.4630e-17 
3895.00 7.4770e-17 
3896.50 7.4997e-17 
3898.00 7.4849e-17 
3899.50 7.2388e-17 
3901.00 7.6245e-17 
3902.50 7.4800e-17 
3904.00 7.1249e-17 
3905.50 7.5333e-17 
3907.00 8.0637e-17 
3908.50 7.7261e-17 
3910.00 7.8346e-17 
3911.50 7.8193e-17 
3913.00 7.7964e-17 
3914.50 7.2915e-17 
3916.00 7.4305e-17 
3917.50 7.8291e-17 
3919.00 7.6457e-17 
3920.50 7.4016e-17 
3922.00 7.7650e-17 
3923.50 8.1584e-17 
3925.00 7.8966e-17 
3926.50 7.8435e-17 
3928.00 7.8614e-17 
3929.50 7.9495e-17 
3931.00 7.9683e-17 
3932.50 8.0455e-17 
3934.00 8.1567e-17 
3935.50 7.7842e-17 
3937.00 8.2578e-17 
3938.50 8.1891e-17 
3940.00 8.7996e-17 
3941.50 8.5243e-17 
3943.00 8.3854e-17 
3944.50 8.7145e-17 
3946.00 9.0387e-17 
3947.50 8.6855e-17 
3949.00 8.9983e-17 
3950.50 9.0705e-17 
3952.00 8.8374e-17 
3953.50 8.7881e-17 
3955.00 9.0711e-17 
3956.50 9.3040e-17 
3958.00 8.7821e-17 
3959.50 8.6045e-17 
3961.00 9.2882e-17 
3962.50 9.0141e-17 
3964.00 8.7076e-17 
3965.50 9.1177e-17 
3967.00 9.3321e-17 
3968.50 9.0529e-17 
3970.00 8.8238e-17 
3971.50 8.7641e-17 
3973.00 8.8251e-17 
3974.50 9.0529e-17 
3976.00 9.3170e-17 
3977.50 8.9617e-17 
3979.00 8.9104e-17 
3980.50 8.9587e-17 
3982.00 8.6842e-17 
3983.50 8.4599e-17 
3985.00 8.4743e-17 
3986.50 8.5607e-17 
3988.00 8.7097e-17 
3989.50 8.5707e-17 
3991.00 8.6269e-17 
3992.50 8.2322e-17 
3994.00 8.2814e-17 
3995.50 8.3286e-17 
3997.00 8.4235e-17 
3998.50 8.5505e-17 
4000.00 8.5172e-17 
4001.50 8.8763e-17 
4003.00 8.7587e-17 
4004.50 8.9065e-17 
4006.00 8.6107e-17 
4007.50 7.8474e-17 
4009.00 7.4625e-17 
4010.50 8.0652e-17 
4012.00 7.8824e-17 
4013.50 7.8121e-17 
4015.00 7.7586e-17 
4016.50 7.6243e-17 
4018.00 8.0260e-17 
4019.50 8.1069e-17 
4021.00 7.9585e-17 
4022.50 7.9660e-17 
4024.00 7.7549e-17 
4025.50 7.3863e-17 
4027.00 7.5619e-17 
4028.50 7.8320e-17 
4030.00 7.7485e-17 
4031.50 7.7144e-17 
4033.00 7.7173e-17 
4034.50 7.6872e-17 
4036.00 7.5378e-17 
4037.50 7.8634e-17 
4039.00 7.2166e-17 
4040.50 7.6673e-17 
4042.00 7.4247e-17 
4043.50 7.1956e-17 
4045.00 7.1171e-17 
4046.50 7.5461e-17 
4048.00 7.8159e-17 
4049.50 7.6105e-17 
4051.00 7.6712e-17 
4052.50 7.4400e-17 
4054.00 7.2874e-17 
4055.50 7.1946e-17 
4057.00 7.1015e-17 
4058.50 7.3747e-17 
4060.00 7.2970e-17 
4061.50 7.3837e-17 
4063.00 7.9138e-17 
4064.50 7.5250e-17 
4066.00 7.3035e-17 
4067.50 7.0250e-17 
4069.00 7.0911e-17 
4070.50 7.6002e-17 
4072.00 7.0540e-17 
4073.50 7.1201e-17 
4075.00 7.2829e-17 
4076.50 7.4222e-17 
4078.00 7.0358e-17 
4079.50 6.9819e-17 
4081.00 7.0633e-17 
4082.50 7.4373e-17 
4084.00 7.3048e-17 
4085.50 7.3005e-17 
4087.00 7.1611e-17 
4088.50 7.2261e-17 
4090.00 7.3044e-17 
4091.50 7.0899e-17 
4093.00 7.1304e-17 
4094.50 7.2448e-17 
4096.00 7.0551e-17 
4097.50 6.9514e-17 
4099.00 7.0693e-17 
4100.50 7.0886e-17 
4102.00 7.2646e-17 
4103.50 6.8116e-17 
4105.00 6.9088e-17 
4106.50 6.8789e-17 
4108.00 6.8954e-17 
4109.50 7.0638e-17 
4111.00 7.0928e-17 
4112.50 6.9049e-17 
4114.00 7.0780e-17 
4115.50 7.1407e-17 
4117.00 6.8925e-17 
4118.50 6.8196e-17 
4120.00 7.0327e-17 
4121.50 7.2985e-17 
4123.00 6.8593e-17 
4124.50 6.5760e-17 
4126.00 6.4245e-17 
4127.50 6.5235e-17 
4129.00 6.5690e-17 
4130.50 6.8530e-17 
4132.00 7.1127e-17 
4133.50 6.6189e-17 
4135.00 6.5724e-17 
4136.50 6.9601e-17 
4138.00 6.7520e-17 
4139.50 6.8374e-17 
4141.00 6.7480e-17 
4142.50 7.1598e-17 
4144.00 7.2577e-17 
4145.50 6.8231e-17 
4147.00 7.1881e-17 
4148.50 6.9596e-17 
4150.00 6.8349e-17 
4151.50 6.9126e-17 
4153.00 6.5568e-17 
4154.50 7.3171e-17 
4156.00 6.7205e-17 
4157.50 6.8654e-17 
4159.00 6.7825e-17 
4160.50 6.7236e-17 
4162.00 6.6183e-17 
4163.50 6.8633e-17 
4165.00 6.6232e-17 
4166.50 7.2166e-17 
4168.00 7.1300e-17 
4169.50 7.0562e-17 
4171.00 6.7546e-17 
4172.50 6.8076e-17 
4174.00 7.0282e-17 
4175.50 6.9348e-17 
4177.00 7.0319e-17 
4178.50 6.7741e-17 
4180.00 7.0727e-17 
4181.50 6.9427e-17 
4183.00 6.5403e-17 
4184.50 6.8784e-17 
4186.00 6.5825e-17 
4187.50 7.0696e-17 
4189.00 7.0812e-17 
4190.50 7.1279e-17 
4192.00 7.2660e-17 
4193.50 6.8742e-17 
4195.00 7.0346e-17 
4196.50 7.0827e-17 
4198.00 6.8565e-17 
4199.50 6.8971e-17 
4201.00 6.7544e-17 
4202.50 7.0576e-17 
4204.00 7.3281e-17 
4205.50 6.7894e-17 
4207.00 6.8472e-17 
4208.50 6.8169e-17 
4210.00 6.9909e-17 
4211.50 6.7570e-17 
4213.00 7.1341e-17 
4214.50 7.1556e-17 
4216.00 7.0190e-17 
4217.50 6.7664e-17 
4219.00 7.0469e-17 
4220.50 7.4090e-17 
4222.00 7.4654e-17 
4223.50 7.0706e-17 
4225.00 7.0138e-17 
4226.50 6.6962e-17 
4228.00 7.1768e-17 
4229.50 6.8205e-17 
4231.00 6.7267e-17 
4232.50 7.0506e-17 
4234.00 7.2183e-17 
4235.50 6.8484e-17 
4237.00 7.0774e-17 
4238.50 6.7650e-17 
4240.00 6.9906e-17 
4241.50 6.8390e-17 
4243.00 7.0141e-17 
4244.50 7.2617e-17 
4246.00 7.1899e-17 
4247.50 7.1327e-17 
4249.00 7.1631e-17 
4250.50 6.9385e-17 
4252.00 7.1659e-17 
4253.50 7.0772e-17 
4255.00 7.0129e-17 
4256.50 6.8196e-17 
4258.00 6.7044e-17 
4259.50 6.5734e-17 
4261.00 7.1182e-17 
4262.50 6.8680e-17 
4264.00 6.8515e-17 
4265.50 7.0795e-17 
4267.00 6.9701e-17 
4268.50 7.1451e-17 
4270.00 7.2414e-17 
4271.50 7.1054e-17 
4273.00 6.9414e-17 
4274.50 7.0157e-17 
4276.00 7.2273e-17 
4277.50 7.2066e-17 
4279.00 7.2636e-17 
4280.50 7.2279e-17 
4282.00 7.1043e-17 
4283.50 6.8555e-17 
4285.00 7.2970e-17 
4286.50 7.2108e-17 
4288.00 7.3545e-17 
4289.50 7.3994e-17 
4291.00 7.2770e-17 
4292.50 7.4131e-17 
4294.00 7.4262e-17 
4295.50 7.3871e-17 
4297.00 7.1336e-17 
4298.50 7.5295e-17 
4300.00 7.3311e-17 
4301.50 7.3614e-17 
4303.00 7.6575e-17 
4304.50 7.7621e-17 
4306.00 7.7354e-17 
4307.50 7.7953e-17 
4309.00 7.6812e-17 
4310.50 7.8501e-17 
4312.00 8.0435e-17 
4313.50 8.0182e-17 
4315.00 7.9217e-17 
4316.50 8.2456e-17 
4318.00 8.0379e-17 
4319.50 7.9843e-17 
4321.00 8.3862e-17 
4322.50 8.3900e-17 
4324.00 8.6681e-17 
4325.50 8.5994e-17 
4327.00 8.2035e-17 
4328.50 8.3499e-17 
4330.00 8.5734e-17 
4331.50 8.5823e-17 
4333.00 9.2139e-17 
4334.50 8.9861e-17 
4336.00 9.1929e-17 
4337.50 9.0666e-17 
4339.00 8.8266e-17 
4340.50 9.4587e-17 
4342.00 9.2276e-17 
4343.50 9.0553e-17 
4345.00 9.5369e-17 
4346.50 9.5703e-17 
4348.00 9.2680e-17 
4349.50 9.4267e-17 
4351.00 9.7519e-17 
4352.50 9.9874e-17 
4354.00 1.0128e-16 
4355.50 1.0011e-16 
4357.00 1.0454e-16 
4358.50 1.0756e-16 
4360.00 1.0599e-16 
4361.50 1.0596e-16 
4363.00 1.0609e-16 
4364.50 1.0706e-16 
4366.00 1.1174e-16 
4367.50 1.1741e-16 
4369.00 1.1599e-16 
4370.50 1.1693e-16 
4372.00 1.2109e-16 
4373.50 1.2405e-16 
4375.00 1.2305e-16 
4376.50 1.2343e-16 
4378.00 1.2407e-16 
4379.50 1.2180e-16 
4381.00 1.2764e-16 
4382.50 1.2669e-16 
4384.00 1.3075e-16 
4385.50 1.3214e-16 
4387.00 1.3678e-16 
4388.50 1.3664e-16 
4390.00 1.3727e-16 
4391.50 1.3738e-16 
4393.00 1.3919e-16 
4394.50 1.3041e-16 
4396.00 1.2578e-16 
4397.50 1.3342e-16 
4399.00 1.4183e-16 
4400.50 1.3517e-16 
4402.00 1.2214e-16 
4403.50 1.2419e-16 
4405.00 1.2502e-16 
4406.50 1.2692e-16 
4408.00 1.2503e-16 
4409.50 1.2491e-16 
4411.00 1.2248e-16 
4412.50 1.1113e-16 
4414.00 1.0797e-16 
4415.50 1.0875e-16 
4417.00 1.0979e-16 
4418.50 1.0826e-16 
4420.00 1.1032e-16 
4421.50 1.0760e-16 
4423.00 1.0950e-16 
4424.50 1.0414e-16 
4426.00 1.0461e-16 
4427.50 1.0363e-16 
4429.00 1.0241e-16 
4430.50 1.0124e-16 
4432.00 1.0096e-16 
4433.50 1.0070e-16 
4435.00 9.7458e-17 
4436.50 9.7002e-17 
4438.00 9.3775e-17 
4439.50 9.2552e-17 
4441.00 9.5957e-17 
4442.50 9.4438e-17 
4444.00 9.3022e-17 
4445.50 9.1107e-17 
4447.00 9.1724e-17 
4448.50 9.2271e-17 
4450.00 9.3272e-17 
4451.50 8.6723e-17 
4453.00 9.0683e-17 
4454.50 8.8942e-17 
4456.00 9.0187e-17 
4457.50 9.0714e-17 
4459.00 9.1997e-17 
4460.50 8.8880e-17 
4462.00 9.0937e-17 
4463.50 8.4858e-17 
4465.00 8.9045e-17 
4466.50 8.7658e-17 
4468.00 8.4474e-17 
4469.50 8.5280e-17 
4471.00 8.6867e-17 
4472.50 8.7251e-17 
4474.00 8.7907e-17 
4475.50 8.3764e-17 
4477.00 8.3178e-17 
4478.50 8.3832e-17 
4480.00 8.1288e-17 
4481.50 7.8574e-17 
4483.00 8.1869e-17 
4484.50 8.3146e-17 
4486.00 7.8456e-17 
4487.50 8.0859e-17 
4489.00 8.1622e-17 
4490.50 8.2251e-17 
4492.00 7.9828e-17 
4493.50 7.8304e-17 
4495.00 7.8203e-17 
4496.50 8.2615e-17 
4498.00 8.0452e-17 
4499.50 8.0192e-17 
4501.00 7.9776e-17 
4502.50 7.8263e-17 
4504.00 7.8930e-17 
4505.50 8.0689e-17 
4507.00 8.1231e-17 
4508.50 8.0232e-17 
4510.00 7.6227e-17 
4511.50 7.6257e-17 
4513.00 7.5508e-17 
4514.50 7.7230e-17 
4516.00 7.5334e-17 
4517.50 7.6252e-17 
4519.00 7.7236e-17 
4520.50 7.4589e-17 
4522.00 7.1359e-17 
4523.50 7.1732e-17 
4525.00 7.6303e-17 
4526.50 7.6548e-17 
4528.00 7.6399e-17 
4529.50 7.5576e-17 
4531.00 7.3170e-17 
4532.50 7.1935e-17 
4534.00 7.0352e-17 
4535.50 7.1000e-17 
4537.00 7.1599e-17 
4538.50 7.4732e-17 
4540.00 7.2260e-17 
4541.50 7.5113e-17 
4543.00 7.3600e-17 
4544.50 7.4982e-17 
4546.00 7.3957e-17 
4547.50 7.4833e-17 
4549.00 7.1121e-17 
4550.50 7.4169e-17 
4552.00 7.0027e-17 
4553.50 7.3057e-17 
4555.00 7.3905e-17 
4556.50 7.1034e-17 
4558.00 6.9182e-17 
4559.50 7.1052e-17 
4561.00 6.9589e-17 
4562.50 7.1290e-17 
4564.00 7.2310e-17 
4565.50 7.0038e-17 
4567.00 7.3386e-17 
4568.50 7.1492e-17 
4570.00 7.1629e-17 
4571.50 7.3153e-17 
4573.00 6.9086e-17 
4574.50 7.2070e-17 
4576.00 7.1559e-17 
4577.50 7.2506e-17 
4579.00 6.7956e-17 
4580.50 7.2419e-17 
4582.00 7.4279e-17 
4583.50 7.3676e-17 
4585.00 7.1998e-17 
4586.50 6.8736e-17 
4588.00 6.9584e-17 
4589.50 6.8679e-17 
4591.00 7.1283e-17 
4592.50 7.1307e-17 
4594.00 6.8984e-17 
4595.50 6.7949e-17 
4597.00 6.9592e-17 
4598.50 7.1518e-17 
4600.00 6.7705e-17 
4601.50 7.0677e-17 
4603.00 6.7971e-17 
4604.50 7.0943e-17 
4606.00 7.0021e-17 
4607.50 6.7632e-17 
4609.00 6.7741e-17 
4610.50 6.6350e-17 
4612.00 6.9899e-17 
4613.50 7.0172e-17 
4615.00 7.4393e-17 
4616.50 6.9951e-17 
4618.00 7.0623e-17 
4619.50 6.9062e-17 
4621.00 7.0693e-17 
4622.50 7.3465e-17 
4624.00 6.8774e-17 
4625.50 7.1197e-17 
4627.00 6.9639e-17 
4628.50 7.2296e-17 
4630.00 7.4326e-17 
4631.50 7.2150e-17 
4633.00 7.1891e-17 
4634.50 7.2918e-17 
4636.00 6.9750e-17 
4637.50 7.2127e-17 
4639.00 6.9648e-17 
4640.50 7.0986e-17 
4642.00 7.0253e-17 
4643.50 6.9665e-17 
4645.00 7.2806e-17 
4646.50 7.3015e-17 
4648.00 7.3333e-17 
4649.50 7.3538e-17 
4651.00 7.1835e-17 
4652.50 7.0283e-17 
4654.00 6.8199e-17 
4655.50 7.0863e-17 
4657.00 6.9611e-17 
4658.50 6.9998e-17 
4660.00 6.8456e-17 
4661.50 6.7102e-17 
4663.00 6.7490e-17 
4664.50 6.7317e-17 
4666.00 6.7373e-17 
4667.50 6.4964e-17 
4669.00 6.7502e-17 
4670.50 6.8760e-17 
4672.00 6.7829e-17 
4673.50 6.9207e-17 
4675.00 7.4052e-17 
4676.50 7.1003e-17 
4678.00 7.0793e-17 
4679.50 7.0137e-17 
4681.00 7.1059e-17 
4682.50 7.2787e-17 
4684.00 7.2133e-17 
4685.50 7.2640e-17 
4687.00 6.9906e-17 
4688.50 7.3988e-17 
4690.00 6.9984e-17 
4691.50 6.9311e-17 
4693.00 7.0816e-17 
4694.50 6.8823e-17 
4696.00 6.8155e-17 
4697.50 6.5758e-17 
4699.00 6.6925e-17 
4700.50 6.6846e-17 
4702.00 6.5589e-17 
4703.50 6.5393e-17 
4705.00 6.6278e-17 
4706.50 6.7734e-17 
4708.00 6.7454e-17 
4709.50 7.0868e-17 
4711.00 6.7292e-17 
4712.50 6.7286e-17 
4714.00 6.8689e-17 
4715.50 6.9258e-17 
4717.00 6.8901e-17 
4718.50 6.7115e-17 
4720.00 6.8401e-17 
4721.50 6.8533e-17 
4723.00 6.8210e-17 
4724.50 6.6594e-17 
4726.00 6.8730e-17 
4727.50 6.7967e-17 
4729.00 6.6029e-17 
4730.50 6.7525e-17 
4732.00 6.7966e-17 
4733.50 6.6774e-17 
4735.00 6.6018e-17 
4736.50 6.6219e-17 
4738.00 6.7869e-17 
4739.50 6.7267e-17 
4741.00 6.5413e-17 
4742.50 6.6733e-17 
4744.00 6.5443e-17 
4745.50 6.5617e-17 
4747.00 6.8747e-17 
4748.50 6.6252e-17 
4750.00 6.7004e-17 
4751.50 6.6684e-17 
4753.00 6.7135e-17 
4754.50 6.4410e-17 
4756.00 6.5976e-17 
4757.50 6.3469e-17 
4759.00 6.3781e-17 
4760.50 6.3346e-17 
4762.00 6.1604e-17 
4763.50 6.2536e-17 
4765.00 6.2765e-17 
4766.50 5.9793e-17 
4768.00 5.9931e-17 
4769.50 6.3236e-17 
4771.00 6.3448e-17 
4772.50 6.1965e-17 
4774.00 6.2220e-17 
4775.50 6.4840e-17 
4777.00 6.1847e-17 
4778.50 6.1224e-17 
4780.00 6.2167e-17 
4781.50 6.1899e-17 
4783.00 6.1288e-17 
4784.50 6.2113e-17 
4786.00 6.2222e-17 
4787.50 6.0437e-17 
4789.00 6.1493e-17 
4790.50 6.0809e-17 
4792.00 6.1322e-17 
4793.50 6.2183e-17 
4795.00 6.0145e-17 
4796.50 6.2554e-17 
4798.00 6.1993e-17 
4799.50 6.3814e-17 
4801.00 6.2296e-17 
4802.50 6.3327e-17 
4804.00 6.0021e-17 
4805.50 6.0655e-17 
4807.00 6.3016e-17 
4808.50 6.3720e-17 
4810.00 5.9172e-17 
4811.50 6.2951e-17 
4813.00 6.0302e-17 
4814.50 6.0269e-17 
4816.00 6.2314e-17 
4817.50 6.1544e-17 
4819.00 5.9033e-17 
4820.50 6.1160e-17 
4822.00 5.9236e-17 
4823.50 6.1768e-17 
4825.00 6.1281e-17 
4826.50 6.3000e-17 
4828.00 6.0812e-17 
4829.50 6.0212e-17 
4831.00 6.2001e-17 
4832.50 6.2418e-17 
4834.00 6.2077e-17 
4835.50 6.2819e-17 
4837.00 5.9944e-17 
4838.50 5.7386e-17 
4840.00 5.9624e-17 
4841.50 6.0089e-17 
4843.00 5.9516e-17 
4844.50 5.8556e-17 
4846.00 5.7545e-17 
4847.50 6.3529e-17 
4849.00 6.5060e-17 
4850.50 6.3891e-17 
4852.00 6.3478e-17 
4853.50 6.3975e-17 
4855.00 6.5231e-17 
4856.50 6.6455e-17 
4858.00 6.4390e-17 
4859.50 6.1623e-17 
4861.00 6.7343e-17 
4862.50 6.3848e-17 
4864.00 6.3726e-17 
4865.50 6.3630e-17 
4867.00 6.5241e-17 
4868.50 6.4657e-17 
4870.00 6.2993e-17 
4871.50 6.2268e-17 
4873.00 6.3888e-17 
4874.50 6.4108e-17 
4876.00 5.8888e-17 
4877.50 6.0512e-17 
4879.00 6.2041e-17 
4880.50 5.8446e-17 
4882.00 6.0740e-17 
4883.50 6.0886e-17 
4885.00 6.0088e-17 
4886.50 6.3132e-17 
4888.00 6.4236e-17 
4889.50 6.2016e-17 
4891.00 6.3007e-17 
4892.50 6.0046e-17 
4894.00 5.9861e-17 
4895.50 6.0379e-17 
4897.00 5.9627e-17 
4898.50 6.1601e-17 
4900.00 6.1511e-17 
4901.50 6.1980e-17 
4903.00 6.1786e-17 
4904.50 6.0237e-17 
4906.00 5.9087e-17 
4907.50 6.1921e-17 
4909.00 6.2692e-17 
4910.50 5.9671e-17 
4912.00 6.0302e-17 
4913.50 6.0551e-17 
4915.00 5.9238e-17 
4916.50 5.6530e-17 
4918.00 6.0977e-17 
4919.50 6.2969e-17 
4921.00 6.0188e-17 
4922.50 5.8606e-17 
4924.00 6.0418e-17 
4925.50 5.9796e-17 
4927.00 6.0942e-17 
4928.50 6.1704e-17 
4930.00 6.0107e-17 
4931.50 6.1781e-17 
4933.00 6.2116e-17 
4934.50 6.3559e-17 
4936.00 6.1088e-17 
4937.50 6.0278e-17 
4939.00 6.0544e-17 
4940.50 5.5884e-17 
4942.00 5.1673e-17 
4943.50 5.5421e-17 
4945.00 6.1315e-17 
4946.50 6.1686e-17 
4948.00 6.2098e-17 
4949.50 6.5831e-17 
4951.00 6.4816e-17 
4952.50 6.1962e-17 
4954.00 5.7521e-17 
4955.50 5.8703e-17 
4957.00 6.3404e-17 
4958.50 6.4159e-17 
4960.00 6.0268e-17 
4961.50 6.0585e-17 
4963.00 6.2503e-17 
4964.50 6.3843e-17 
4966.00 6.4726e-17 
4967.50 6.2896e-17 
4969.00 6.3898e-17 
4970.50 6.4696e-17 
4972.00 6.2286e-17 
4973.50 6.3559e-17 
4975.00 6.3869e-17 
4976.50 6.1913e-17 
4978.00 6.2078e-17 
4979.50 6.2556e-17 
4981.00 6.3397e-17 
4982.50 6.2465e-17 
4984.00 6.1805e-17 
4985.50 6.2633e-17 
4987.00 6.1246e-17 
4988.50 5.8911e-17 
4990.00 6.0303e-17 
4991.50 6.0985e-17 
4993.00 6.0953e-17 
4994.50 6.3127e-17 
4996.00 6.1054e-17 
4997.50 6.2108e-17 
4999.00 5.9928e-17 
5000.50 6.3332e-17 
5002.00 6.1708e-17 
5003.50 6.4074e-17 
5005.00 6.3345e-17 
5006.50 6.1532e-17 
5008.00 6.0355e-17 
5009.50 6.2053e-17 
5011.00 6.3033e-17 
5012.50 5.6555e-17 
5014.00 5.8218e-17 
5015.50 5.9440e-17 
5017.00 6.0854e-17 
5018.50 6.2482e-17 
5020.00 6.1345e-17 
5021.50 6.0762e-17 
5023.00 6.1363e-17 
5024.50 5.6975e-17 
5026.00 6.0530e-17 
5027.50 5.9928e-17 
5029.00 5.8134e-17 
5030.50 5.8693e-17 
5032.00 6.0480e-17 
5033.50 6.0418e-17 
5035.00 6.0935e-17 
5036.50 6.1975e-17 
5038.00 5.8492e-17 
5039.50 5.8929e-17 
5041.00 6.0045e-17 
5042.50 6.0636e-17 
5044.00 6.2980e-17 
5045.50 5.9239e-17 
5047.00 5.9127e-17 
5048.50 5.9597e-17 
5050.00 6.0208e-17 
5051.50 6.0414e-17 
5053.00 5.9753e-17 
5054.50 6.1026e-17 
5056.00 5.8815e-17 
5057.50 6.0774e-17 
5059.00 5.9918e-17 
5060.50 6.0135e-17 
5062.00 5.8346e-17 
5063.50 5.8910e-17 
5065.00 6.1179e-17 
5066.50 5.8676e-17 
5068.00 5.8103e-17 
5069.50 5.9684e-17 
5071.00 5.8907e-17 
5072.50 5.6317e-17 
5074.00 6.1335e-17 
5075.50 5.8704e-17 
5077.00 5.9534e-17 
5078.50 5.6868e-17 
5080.00 5.9412e-17 
5081.50 5.8363e-17 
5083.00 5.5047e-17 
5084.50 5.7753e-17 
5086.00 5.8497e-17 
5087.50 5.9147e-17 
5089.00 6.0858e-17 
5090.50 6.1937e-17 
5092.00 5.8061e-17 
5093.50 6.2725e-17 
5095.00 5.6412e-17 
5096.50 6.1145e-17 
5098.00 5.8618e-17 
5099.50 5.7177e-17 
5101.00 5.7316e-17 
5102.50 5.5829e-17 
5104.00 5.6340e-17 
5105.50 5.9420e-17 
5107.00 5.7996e-17 
5108.50 5.7977e-17 
5110.00 5.7237e-17 
5111.50 6.0495e-17 
5113.00 6.0017e-17 
5114.50 5.9379e-17 
5116.00 6.0331e-17 
5117.50 5.7435e-17 
5119.00 5.9483e-17 
5120.50 6.0052e-17 
5122.00 5.7442e-17 
5123.50 5.8005e-17 
5125.00 6.0426e-17 
5126.50 5.7001e-17 
5128.00 5.7815e-17 
5129.50 6.0058e-17 
5131.00 5.9830e-17 
5132.50 5.7842e-17 
5134.00 5.5346e-17 
5135.50 5.3469e-17 
5137.00 5.4253e-17 
5138.50 6.0714e-17 
5140.00 5.7482e-17 
5141.50 5.6783e-17 
5143.00 6.0516e-17 
5144.50 6.1862e-17 
5146.00 5.7095e-17 
5147.50 5.4523e-17 
5149.00 5.7748e-17 
5150.50 5.8358e-17 
5152.00 6.1020e-17 
5153.50 5.7404e-17 
5155.00 5.6528e-17 
5156.50 5.7304e-17 
5158.00 5.6554e-17 
5159.50 5.6972e-17 
5161.00 5.7928e-17 
5162.50 5.7184e-17 
5164.00 5.6639e-17 
5165.50 5.5465e-17 
5167.00 5.4872e-17 
5168.50 5.6841e-17 
5170.00 5.8909e-17 
5171.50 5.6223e-17 
5173.00 5.6574e-17 
5174.50 5.7487e-17 
5176.00 5.9055e-17 
5177.50 5.6264e-17 
5179.00 5.6981e-17 
5180.50 5.6378e-17 
5182.00 5.6388e-17 
5183.50 5.6801e-17 
5185.00 5.6988e-17 
5186.50 5.7463e-17 
5188.00 5.5930e-17 
5189.50 5.7173e-17 
5191.00 5.6732e-17 
5192.50 5.6966e-17 
5194.00 5.6042e-17 
5195.50 5.7838e-17 
5197.00 5.6445e-17 
5198.50 5.8867e-17 
5200.00 5.4128e-17 
5201.50 6.0136e-17 
5203.00 5.6466e-17 
5204.50 5.8972e-17 
5206.00 5.7626e-17 
5207.50 5.8483e-17 
5209.00 5.6316e-17 
5210.50 5.6999e-17 
5212.00 5.8860e-17 
5213.50 5.5172e-17 
5215.00 5.8181e-17 
5216.50 5.8493e-17 
5218.00 5.8288e-17 
5219.50 5.5937e-17 
5221.00 5.3579e-17 
5222.50 5.5712e-17 
5224.00 5.7599e-17 
5225.50 5.7306e-17 
5227.00 5.7866e-17 
5228.50 5.7616e-17 
5230.00 5.9428e-17 
5231.50 6.0409e-17 
5233.00 5.7659e-17 
5234.50 5.9502e-17 
5236.00 5.9925e-17 
5237.50 5.9652e-17 
5239.00 5.7909e-17 
5240.50 6.0768e-17 
5242.00 6.0004e-17 
5243.50 5.8665e-17 
5245.00 5.9696e-17 
5246.50 6.0837e-17 
5248.00 5.9381e-17 
5249.50 5.8411e-17 
5251.00 6.0789e-17 
5252.50 5.7928e-17 
5254.00 5.8813e-17 
5255.50 5.6020e-17 
5257.00 5.7931e-17 
5258.50 5.9880e-17 
5260.00 6.0334e-17 
5261.50 6.0510e-17 
5263.00 6.0511e-17 
5264.50 5.9257e-17 
5266.00 6.0403e-17 
5267.50 6.1671e-17 
5269.00 6.2730e-17 
5270.50 6.1302e-17 
5272.00 6.0425e-17 
5273.50 6.0341e-17 
5275.00 6.0402e-17 
5276.50 6.2635e-17 
5278.00 6.4971e-17 
5279.50 6.5306e-17 
5281.00 6.1780e-17 
5282.50 6.2606e-17 
5284.00 6.3612e-17 
5285.50 6.0031e-17 
5287.00 5.9380e-17 
5288.50 6.1362e-17 
5290.00 6.0796e-17 
5291.50 5.9500e-17 
5293.00 5.6984e-17 
5294.50 6.0832e-17 
5296.00 6.0928e-17 
5297.50 6.2242e-17 
5299.00 6.2726e-17 
5300.50 6.2588e-17 
5302.00 6.0038e-17 
5303.50 6.1891e-17 
5305.00 6.3161e-17 
5306.50 6.2745e-17 
5308.00 6.2673e-17 
5309.50 6.3176e-17 
5311.00 6.3164e-17 
5312.50 6.1115e-17 
5314.00 6.1754e-17 
5315.50 6.4009e-17 
5317.00 6.2868e-17 
5318.50 6.2920e-17 
5320.00 6.3058e-17 
5321.50 6.1808e-17 
5323.00 6.1499e-17 
5324.50 6.1094e-17 
5326.00 6.2356e-17 
5327.50 6.3391e-17 
5329.00 6.1288e-17 
5330.50 6.2998e-17 
5332.00 6.1116e-17 
5333.50 6.2632e-17 
5335.00 6.3369e-17 
5336.50 6.0851e-17 
5338.00 6.0645e-17 
5339.50 6.4105e-17 
5341.00 6.1601e-17 
5342.50 6.3631e-17 
5344.00 6.1454e-17 
5345.50 6.3385e-17 
5347.00 6.3507e-17 
5348.50 6.5493e-17 
5350.00 6.5834e-17 
5351.50 6.4005e-17 
5353.00 6.5729e-17 
5354.50 6.6085e-17 
5356.00 6.7621e-17 
5357.50 6.7268e-17 
5359.00 7.0595e-17 
5360.50 6.7780e-17 
5362.00 6.8766e-17 
5363.50 6.9121e-17 
5365.00 6.5875e-17 
5366.50 6.8240e-17 
5368.00 6.8658e-17 
5369.50 6.6746e-17 
5371.00 6.8275e-17 
5372.50 6.7383e-17 
5374.00 6.9240e-17 
5375.50 7.1517e-17 
5377.00 6.6295e-17 
5378.50 6.7986e-17 
5380.00 7.1313e-17 
5381.50 7.1384e-17 
5383.00 7.1240e-17 
5384.50 6.6171e-17 
5386.00 7.2044e-17 
5387.50 7.0885e-17 
5389.00 6.9583e-17 
5390.50 7.2252e-17 
5392.00 7.1010e-17 
5393.50 7.1592e-17 
5395.00 7.2104e-17 
5396.50 7.4056e-17 
5398.00 7.1674e-17 
5399.50 7.2109e-17 
5401.00 7.3166e-17 
5402.50 7.4962e-17 
5404.00 7.5146e-17 
5405.50 7.5390e-17 
5407.00 7.1396e-17 
5408.50 7.6576e-17 
5410.00 7.6647e-17 
5411.50 7.2406e-17 
5413.00 7.5514e-17 
5414.50 7.3184e-17 
5416.00 7.5063e-17 
5417.50 7.4212e-17 
5419.00 7.2448e-17 
5420.50 7.1547e-17 
5422.00 6.8044e-17 
5423.50 6.5606e-17 
5425.00 6.7427e-17 
5426.50 6.9399e-17 
5428.00 6.8233e-17 
5429.50 6.6299e-17 
5431.00 6.7644e-17 
5432.50 6.7522e-17 
5434.00 7.0809e-17 
5435.50 6.6128e-17 
5437.00 6.9510e-17 
5438.50 6.6925e-17 
5440.00 6.9139e-17 
5441.50 6.8746e-17 
5443.00 6.7069e-17 
5444.50 6.9472e-17 
5446.00 6.8260e-17 
5447.50 6.6608e-17 
5449.00 6.5381e-17 
5450.50 6.7036e-17 
5452.00 6.6450e-17 
5453.50 6.5689e-17 
5455.00 6.2865e-17 
5456.50 6.6188e-17 
5458.00 6.3843e-17 
5459.50 6.2357e-17 
5461.00 6.5166e-17 
5462.50 6.6240e-17 
5464.00 6.2733e-17 
5465.50 6.3303e-17 
5467.00 6.4042e-17 
5468.50 6.1553e-17 
5470.00 6.3791e-17 
5471.50 6.3501e-17 
5473.00 6.5293e-17 
5474.50 6.2046e-17 
5476.00 5.8912e-17 
5477.50 6.0506e-17 
5479.00 6.0648e-17 
5480.50 6.0757e-17 
5482.00 5.9883e-17 
5483.50 5.7849e-17 
5485.00 6.0190e-17 
5486.50 6.1041e-17 
5488.00 5.9277e-17 
5489.50 5.9977e-17 
5491.00 5.8679e-17 
5492.50 5.8557e-17 
5494.00 5.8504e-17 
5495.50 5.5594e-17 
5497.00 5.8804e-17 
5498.50 5.9038e-17 
5500.00 5.6658e-17 
5501.50 0
5503.00 0
5504.50 0
5506.00 0
5507.50 0
5509.00 0
5510.50 0
5512.00 0
5513.50 0
5515.00 0
5516.50 0
5518.00 0
5519.50 0
5521.00 0
5522.50 0
5524.00 0
5525.50 0
5527.00 0
5528.50 0
5530.00 0
5531.50 0
5533.00 0
5534.50 0
5536.00 0
5537.50 0
5539.00 0
5540.50 0
5542.00 0
5543.50 0
5545.00 0
5546.50 0
5548.00 0
5549.50 0
5551.00 0
5552.50 0
5554.00 0
5555.50 0
5557.00 0
5558.50 0
5560.00 0
5561.50 0
5563.00 0
5564.50 0
5566.00 0
5567.50 0
5569.00 0
5570.50 0
5572.00 0
5573.50 0
5575.00 0
5576.50 0
5578.00 0
5579.50 0
5581.00 0
5582.50 0
5584.00 0
5585.50 0
5587.00 0
5588.50 0
5590.00 0
5591.50 0
5593.00 0
5594.50 0
5596.00 0
5597.50 0
5599.00 0
5600.50 0
5602.00 0
5603.50 0
5605.00 0
5606.50 0
5608.00 0
5609.50 0
5611.00 0
5612.50 0
5614.00 0
5615.50 0
5617.00 0
5618.50 0
5620.00 0
5621.50 0
5623.00 0
5624.50 0
5626.00 0
5627.50 0
5629.00 0
5630.50 0
5632.00 0
5633.50 0
5635.00 0
5636.50 0
5638.00 0
5639.50 0
5641.00 0
5642.50 0
5644.00 0
5645.50 0
5647.00 0
5648.50 0
5650.00 0
5651.50 0
5653.00 0
5654.50 0
5656.00 0
5657.50 0
5659.00 0
5660.50 0
5662.00 0
5663.50 0
5665.00 0
5666.50 0
5668.00 0
5669.50 0
5671.00 0
5672.50 0
5674.00 0
5675.50 0
5677.00 0
5678.50 0
5680.00 0
5681.50 0
5683.00 0
5684.50 0
5686.00 0
5687.50 0
5689.00 0
5690.50 0
5692.00 0
5693.50 0
5695.00 0
5696.50 0
5698.00 0
5699.50 0
5701.00 0
5702.50 0
5704.00 0
5705.50 0
5707.00 0
5708.50 0
5710.00 0
5711.50 0
5713.00 0
5714.50 0
5716.00 0
5717.50 0
5719.00 0
5720.50 0
5722.00 0
5723.50 0
5725.00 0
5726.50 0
5728.00 0
5729.50 0
5731.00 0
5732.50 0
5734.00 0
5735.50 0
5737.00 0
5738.50 0
5740.00 0
5741.50 0
5743.00 0
5744.50 0
5746.00 0
5747.50 0
5749.00 0
5750.50 0
5752.00 0
5753.50 0
5755.00 0
5756.50 0
5758.00 0
5759.50 0
5761.00 0
5762.50 0
5764.00 0
5765.50 0
5767.00 0
5768.50 0
5770.00 0
5771.50 0
5773.00 0
5774.50 0
5776.00 0
5777.50 0
5779.00 0
5780.50 0
5782.00 0
5783.50 0
5785.00 0
5786.50 0
5788.00 0
5789.50 0
5791.00 0
5792.50 0
5794.00 0
5795.50 0
5797.00 0
5798.50 0
5800.00 0
5801.50 0
5803.00 4.8878e-17 
5804.50 4.7384e-17 
5806.00 4.6976e-17 
5807.50 4.7638e-17 
5809.00 4.8054e-17 
5810.50 5.0247e-17 
5812.00 4.9614e-17 
5813.50 4.8496e-17 
5815.00 4.9403e-17 
5816.50 4.8336e-17 
5818.00 4.8864e-17 
5819.50 4.7876e-17 
5821.00 4.8346e-17 
5822.50 4.9238e-17 
5824.00 4.8890e-17 
5825.50 4.8904e-17 
5827.00 4.9757e-17 
5828.50 4.8175e-17 
5830.00 5.0053e-17 
5831.50 5.0565e-17 
5833.00 5.0206e-17 
5834.50 5.0114e-17 
5836.00 5.0715e-17 
5837.50 4.9735e-17 
5839.00 4.9289e-17 
5840.50 5.0799e-17 
5842.00 5.0470e-17 
5843.50 5.0466e-17 
5845.00 5.0136e-17 
5846.50 4.9966e-17 
5848.00 5.0595e-17 
5849.50 5.0943e-17 
5851.00 5.1012e-17 
5852.50 5.0368e-17 
5854.00 5.0036e-17 
5855.50 5.0191e-17 
5857.00 5.0922e-17 
5858.50 5.0050e-17 
5860.00 5.0043e-17 
5861.50 5.0703e-17 
5863.00 5.1241e-17 
5864.50 5.0988e-17 
5866.00 4.9792e-17 
5867.50 4.8634e-17 
5869.00 4.9942e-17 
5870.50 4.9365e-17 
5872.00 4.9665e-17 
5873.50 5.0202e-17 
5875.00 4.9600e-17 
5876.50 5.0033e-17 
5878.00 5.0143e-17 
5879.50 5.0854e-17 
5881.00 5.0777e-17 
5882.50 5.0286e-17 
5884.00 4.9669e-17 
5885.50 4.9855e-17 
5887.00 4.9979e-17 
5888.50 5.0352e-17 
5890.00 4.9792e-17 
5891.50 4.9430e-17 
5893.00 4.9829e-17 
5894.50 4.9168e-17 
5896.00 5.0147e-17 
5897.50 4.9524e-17 
5899.00 4.9198e-17 
5900.50 4.9917e-17 
5902.00 5.1303e-17 
5903.50 5.0900e-17 
5905.00 5.0338e-17 
5906.50 5.0319e-17 
5908.00 4.9842e-17 
5909.50 4.9141e-17 
5911.00 4.9615e-17 
5912.50 4.9219e-17 
5914.00 4.9686e-17 
5915.50 5.0626e-17 
5917.00 4.9879e-17 
5918.50 4.8752e-17 
5920.00 4.9014e-17 
5921.50 5.0333e-17 
5923.00 5.0028e-17 
5924.50 4.8434e-17 
5926.00 4.8489e-17 
5927.50 4.9236e-17 
5929.00 4.7862e-17 
5930.50 4.9170e-17 
5932.00 4.9483e-17 
5933.50 4.9026e-17 
5935.00 4.9786e-17 
5936.50 4.9370e-17 
5938.00 4.8582e-17 
5939.50 4.8859e-17 
5941.00 4.8073e-17 
5942.50 4.8482e-17 
5944.00 4.9008e-17 
5945.50 4.8006e-17 
5947.00 4.8328e-17 
5948.50 4.7968e-17 
5950.00 4.6489e-17 
5951.50 4.8712e-17 
5953.00 4.9044e-17 
5954.50 4.8938e-17 
5956.00 4.6914e-17 
5957.50 4.6920e-17 
5959.00 4.8139e-17 
5960.50 4.8396e-17 
5962.00 4.8026e-17 
5963.50 4.8576e-17 
5965.00 4.9008e-17 
5966.50 4.8719e-17 
5968.00 4.7297e-17 
5969.50 4.6515e-17 
5971.00 4.7244e-17 
5972.50 4.8115e-17 
5974.00 4.8432e-17 
5975.50 4.8461e-17 
5977.00 4.8128e-17 
5978.50 4.8959e-17 
5980.00 4.9487e-17 
5981.50 4.9695e-17 
5983.00 4.8545e-17 
5984.50 4.8040e-17 
5986.00 4.7673e-17 
5987.50 4.8428e-17 
5989.00 4.8541e-17 
5990.50 4.7748e-17 
5992.00 4.7767e-17 
5993.50 4.7371e-17 
5995.00 4.7533e-17 
5996.50 4.7771e-17 
5998.00 4.7544e-17 
5999.50 4.6274e-17 
6001.00 4.5865e-17 
6002.50 4.7860e-17 
6004.00 4.7179e-17 
6005.50 4.6625e-17 
6007.00 4.8555e-17 
6008.50 4.7944e-17 
6010.00 4.8216e-17 
6011.50 4.8026e-17 
6013.00 4.7456e-17 
6014.50 4.7488e-17 
6016.00 4.7294e-17 
6017.50 4.8034e-17 
6019.00 4.7218e-17 
6020.50 4.8033e-17 
6022.00 4.8511e-17 
6023.50 4.7483e-17 
6025.00 4.7030e-17 
6026.50 4.6534e-17 
6028.00 4.7481e-17 
6029.50 4.8720e-17 
6031.00 4.6809e-17 
6032.50 4.7153e-17 
6034.00 4.7345e-17 
6035.50 4.6658e-17 
6037.00 4.6411e-17 
6038.50 4.5106e-17 
6040.00 4.6415e-17 
6041.50 4.6298e-17 
6043.00 4.5831e-17 
6044.50 4.6228e-17 
6046.00 4.5772e-17 
6047.50 4.6334e-17 
6049.00 4.5457e-17 
6050.50 4.5682e-17 
6052.00 4.5848e-17 
6053.50 4.5459e-17 
6055.00 4.6761e-17 
6056.50 4.6539e-17 
6058.00 4.6096e-17 
6059.50 4.5145e-17 
6061.00 4.5582e-17 
6062.50 4.5986e-17 
6064.00 4.5901e-17 
6065.50 4.5430e-17 
6067.00 4.6098e-17 
6068.50 4.6107e-17 
6070.00 4.6354e-17 
6071.50 4.6218e-17 
6073.00 4.6779e-17 
6074.50 4.6447e-17 
6076.00 4.6074e-17 
6077.50 4.6931e-17 
6079.00 4.6343e-17 
6080.50 4.6265e-17 
6082.00 4.5254e-17 
6083.50 4.5649e-17 
6085.00 4.6323e-17 
6086.50 4.5606e-17 
6088.00 4.5437e-17 
6089.50 4.5275e-17 
6091.00 4.4594e-17 
6092.50 4.4184e-17 
6094.00 4.5195e-17 
6095.50 4.5978e-17 
6097.00 4.5594e-17 
6098.50 4.5324e-17 
6100.00 4.5692e-17 
6101.50 4.5981e-17 
6103.00 4.4975e-17 
6104.50 4.4810e-17 
6106.00 4.5279e-17 
6107.50 4.4635e-17 
6109.00 4.6200e-17 
6110.50 4.5917e-17 
6112.00 4.4960e-17 
6113.50 4.5345e-17 
6115.00 4.5206e-17 
6116.50 4.5857e-17 
6118.00 4.5139e-17 
6119.50 4.5400e-17 
6121.00 4.5413e-17 
6122.50 4.4808e-17 
6124.00 4.4501e-17 
6125.50 4.3897e-17 
6127.00 4.3546e-17 
6128.50 4.3877e-17 
6130.00 4.3548e-17 
6131.50 4.4298e-17 
6133.00 4.5057e-17 
6134.50 4.3199e-17 
6136.00 4.3804e-17 
6137.50 4.4643e-17 
6139.00 4.4672e-17 
6140.50 4.4505e-17 
6142.00 4.4397e-17 
6143.50 4.4535e-17 
6145.00 4.4848e-17 
6146.50 4.5528e-17 
6148.00 4.4285e-17 
6149.50 4.3216e-17 
6151.00 4.2737e-17 
6152.50 4.3611e-17 
6154.00 4.3534e-17 
6155.50 4.4015e-17 
6157.00 4.4844e-17 
6158.50 4.3914e-17 
6160.00 4.3100e-17 
6161.50 4.3551e-17 
6163.00 4.4944e-17 
6164.50 4.4704e-17 
6166.00 4.4010e-17 
6167.50 4.4026e-17 
6169.00 4.5572e-17 
6170.50 4.4447e-17 
6172.00 4.3813e-17 
6173.50 4.5020e-17 
6175.00 4.6547e-17 
6176.50 4.5724e-17 
6178.00 4.3996e-17 
6179.50 4.3409e-17 
6181.00 4.3127e-17 
6182.50 4.3881e-17 
6184.00 4.4231e-17 
6185.50 4.3424e-17 
6187.00 4.2780e-17 
6188.50 4.3681e-17 
6190.00 4.3577e-17 
6191.50 4.3332e-17 
6193.00 4.3579e-17 
6194.50 4.2909e-17 
6196.00 4.3651e-17 
6197.50 4.4758e-17 
6199.00 4.4038e-17 
6200.50 4.3879e-17 
6202.00 4.3025e-17 
6203.50 4.4139e-17 
6205.00 4.4232e-17 
6206.50 4.2465e-17 
6208.00 4.2329e-17 
6209.50 4.2996e-17 
6211.00 4.2387e-17 
6212.50 4.2823e-17 
6214.00 4.3740e-17 
6215.50 4.2800e-17 
6217.00 4.1482e-17 
6218.50 4.1643e-17 
6220.00 4.3145e-17 
6221.50 4.3522e-17 
6223.00 4.1884e-17 
6224.50 4.1728e-17 
6226.00 4.2373e-17 
6227.50 4.1559e-17 
6229.00 4.1682e-17 
6230.50 4.3140e-17 
6232.00 4.3120e-17 
6233.50 4.1791e-17 
6235.00 4.2166e-17 
6236.50 4.1373e-17 
6238.00 4.2343e-17 
6239.50 4.1828e-17 
6241.00 4.0027e-17 
6242.50 3.9997e-17 
6244.00 4.1268e-17 
6245.50 4.1434e-17 
6247.00 4.0670e-17 
6248.50 4.1276e-17 
6250.00 4.1779e-17 
6251.50 4.1441e-17 
6253.00 4.1195e-17 
6254.50 4.2046e-17 
6256.00 4.1287e-17 
6257.50 3.9776e-17 
6259.00 4.1426e-17 
6260.50 4.0254e-17 
6262.00 4.1598e-17 
6263.50 4.1338e-17 
6265.00 4.0962e-17 
6266.50 4.0801e-17 
6268.00 3.9962e-17 
6269.50 4.0287e-17 
6271.00 3.9922e-17 
6272.50 3.9138e-17 
6274.00 4.0265e-17 
6275.50 4.0335e-17 
6277.00 3.8611e-17 
6278.50 3.8484e-17 
6280.00 3.8338e-17 
6281.50 3.7998e-17 
6283.00 3.8890e-17 
6284.50 4.1029e-17 
6286.00 4.0177e-17 
6287.50 3.9078e-17 
6289.00 3.9264e-17 
6290.50 3.9898e-17 
6292.00 3.9302e-17 
6293.50 3.9289e-17 
6295.00 3.9749e-17 
6296.50 3.9850e-17 
6298.00 3.9349e-17 
6299.50 3.9785e-17 
6301.00 3.8546e-17 
6302.50 3.7723e-17 
6304.00 3.9066e-17 
6305.50 4.0978e-17 
6307.00 4.1429e-17 
6308.50 3.9386e-17 
6310.00 3.9963e-17 
6311.50 4.0003e-17 
6313.00 3.9284e-17 
6314.50 3.9670e-17 
6316.00 3.9777e-17 
6317.50 4.0303e-17 
6319.00 3.9568e-17 
6320.50 3.9873e-17 
6322.00 3.9765e-17 
6323.50 3.9102e-17 
6325.00 3.8501e-17 
6326.50 3.8432e-17 
6328.00 3.8731e-17 
6329.50 3.9561e-17 
6331.00 3.9121e-17 
6332.50 3.9085e-17 
6334.00 3.9242e-17 
6335.50 3.9547e-17 
6337.00 3.9416e-17 
6338.50 3.9284e-17 
6340.00 3.9101e-17 
6341.50 3.8640e-17 
6343.00 3.9417e-17 
6344.50 4.0858e-17 
6346.00 4.1389e-17 
6347.50 4.1099e-17 
6349.00 3.9824e-17 
6350.50 3.9371e-17 
6352.00 3.9230e-17 
6353.50 3.8676e-17 
6355.00 3.9594e-17 
6356.50 4.0360e-17 
6358.00 4.0887e-17 
6359.50 4.0021e-17 
6361.00 4.1247e-17 
6362.50 4.1474e-17 
6364.00 4.0300e-17 
6365.50 3.9769e-17 
6367.00 4.0763e-17 
6368.50 4.0901e-17 
6370.00 4.0426e-17 
6371.50 4.0131e-17 
6373.00 3.9890e-17 
6374.50 4.0468e-17 
6376.00 4.0302e-17 
6377.50 4.0008e-17 
6379.00 3.9845e-17 
6380.50 3.9582e-17 
6382.00 4.0225e-17 
6383.50 4.0238e-17 
6385.00 4.0010e-17 
6386.50 3.9631e-17 
6388.00 3.9660e-17 
6389.50 4.0375e-17 
6391.00 4.0262e-17 
6392.50 4.0226e-17 
6394.00 4.0370e-17 
6395.50 3.9794e-17 
6397.00 4.0550e-17 
6398.50 4.1317e-17 
6400.00 4.1604e-17 
6401.50 4.1078e-17 
6403.00 4.0779e-17 
6404.50 3.9827e-17 
6406.00 4.0383e-17 
6407.50 4.0653e-17 
6409.00 4.0342e-17 
6410.50 4.1568e-17 
6412.00 4.1765e-17 
6413.50 4.2265e-17 
6415.00 4.0973e-17 
6416.50 4.0632e-17 
6418.00 4.0486e-17 
6419.50 4.0885e-17 
6421.00 4.1775e-17 
6422.50 4.0584e-17 
6424.00 4.1186e-17 
6425.50 4.2024e-17 
6427.00 4.2056e-17 
6428.50 4.1762e-17 
6430.00 4.1907e-17 
6431.50 4.1095e-17 
6433.00 4.0504e-17 
6434.50 4.0287e-17 
6436.00 4.0459e-17 
6437.50 4.0511e-17 
6439.00 4.1572e-17 
6440.50 4.1492e-17 
6442.00 4.0977e-17 
6443.50 4.1100e-17 
6445.00 4.1729e-17 
6446.50 4.2400e-17 
6448.00 4.1991e-17 
6449.50 4.1780e-17 
6451.00 4.2300e-17 
6452.50 4.2003e-17 
6454.00 4.3018e-17 
6455.50 4.3465e-17 
6457.00 4.2534e-17 
6458.50 4.2023e-17 
6460.00 4.2138e-17 
6461.50 4.3137e-17 
6463.00 4.2063e-17 
6464.50 4.2181e-17 
6466.00 4.1268e-17 
6467.50 4.1675e-17 
6469.00 4.2846e-17 
6470.50 4.2033e-17 
6472.00 4.2201e-17 
6473.50 4.2063e-17 
6475.00 4.1264e-17 
6476.50 4.2155e-17 
6478.00 4.3272e-17 
6479.50 4.3554e-17 
6481.00 4.3110e-17 
6482.50 4.3384e-17 
6484.00 4.2388e-17 
6485.50 4.2949e-17 
6487.00 4.2896e-17 
6488.50 4.1558e-17 
6490.00 4.1893e-17 
6491.50 4.3547e-17 
6493.00 4.3483e-17 
6494.50 4.2558e-17 
6496.00 4.2286e-17 
6497.50 4.2807e-17 
6499.00 4.2331e-17 
6500.50 4.3625e-17 
6502.00 4.3669e-17 
6503.50 4.2874e-17 
6505.00 4.1742e-17 
6506.50 4.2603e-17 
6508.00 4.2299e-17 
6509.50 4.3148e-17 
6511.00 4.3441e-17 
6512.50 4.3051e-17 
6514.00 4.3293e-17 
6515.50 4.2953e-17 
6517.00 4.2807e-17 
6518.50 4.3918e-17 
6520.00 4.3805e-17 
6521.50 4.2950e-17 
6523.00 4.3103e-17 
6524.50 4.1888e-17 
6526.00 4.2009e-17 
6527.50 4.1709e-17 
6529.00 4.1902e-17 
6530.50 4.3515e-17 
6532.00 4.3725e-17 
6533.50 4.3081e-17 
6535.00 4.4031e-17 
6536.50 4.3607e-17 
6538.00 4.2177e-17 
6539.50 4.1981e-17 
6541.00 4.3744e-17 
6542.50 4.2315e-17 
6544.00 4.1604e-17 
6545.50 4.1314e-17 
6547.00 4.3178e-17 
6548.50 4.1986e-17 
6550.00 4.2062e-17 
6551.50 4.1553e-17 
6553.00 4.2897e-17 
6554.50 4.3292e-17 
6556.00 4.3205e-17 
6557.50 4.3478e-17 
6559.00 4.2489e-17 
6560.50 4.2356e-17 
6562.00 4.2831e-17 
6563.50 4.2954e-17 
6565.00 4.3935e-17 
6566.50 4.2505e-17 
6568.00 4.1594e-17 
6569.50 4.2771e-17 
6571.00 4.2850e-17 
6572.50 4.2696e-17 
6574.00 4.3988e-17 
6575.50 4.3666e-17 
6577.00 4.2657e-17 
6578.50 4.2868e-17 
6580.00 4.2279e-17 
6581.50 4.2592e-17 
6583.00 4.2491e-17 
6584.50 4.1553e-17 
6586.00 4.3153e-17 
6587.50 4.3507e-17 
6589.00 4.2956e-17 
6590.50 4.1876e-17 
6592.00 4.1708e-17 
6593.50 4.3087e-17 
6595.00 4.2625e-17 
6596.50 4.2108e-17 
6598.00 4.2392e-17 
6599.50 4.1659e-17 
6601.00 4.2559e-17 
6602.50 4.2509e-17 
6604.00 4.1676e-17 
6605.50 4.2246e-17 
6607.00 4.3089e-17 
6608.50 4.2599e-17 
6610.00 4.2826e-17 
6611.50 4.3820e-17 
6613.00 4.2019e-17 
6614.50 4.1967e-17 
6616.00 4.1689e-17 
6617.50 4.0443e-17 
6619.00 4.1022e-17 
6620.50 4.1828e-17 
6622.00 4.2879e-17 
6623.50 4.2435e-17 
6625.00 4.3283e-17 
6626.50 4.3316e-17 
6628.00 4.1769e-17 
6629.50 4.0804e-17 
6631.00 4.0462e-17 
6632.50 4.1731e-17 
6634.00 4.2034e-17 
6635.50 4.2319e-17 
6637.00 4.2674e-17 
6638.50 4.2659e-17 
6640.00 4.1628e-17 
6641.50 4.2414e-17 
6643.00 4.2791e-17 
6644.50 4.2562e-17 
6646.00 4.2870e-17 
6647.50 4.2533e-17 
6649.00 4.1817e-17 
6650.50 4.1278e-17 
6652.00 4.1629e-17 
6653.50 4.2139e-17 
6655.00 4.2149e-17 
6656.50 4.2603e-17 
6658.00 4.2382e-17 
6659.50 4.1238e-17 
6661.00 4.1723e-17 
6662.50 4.1087e-17 
6664.00 4.2048e-17 
6665.50 4.1982e-17 
6667.00 4.3227e-17 
6668.50 4.2613e-17 
6670.00 4.1791e-17 
6671.50 4.1354e-17 
6673.00 4.1499e-17 
6674.50 4.1371e-17 
6676.00 4.2166e-17 
6677.50 4.2717e-17 
6679.00 4.1845e-17 
6680.50 4.2120e-17 
6682.00 4.1252e-17 
6683.50 4.1920e-17 
6685.00 4.1545e-17 
6686.50 4.2346e-17 
6688.00 4.1907e-17 
6689.50 4.1709e-17 
6691.00 4.1961e-17 
6692.50 4.1780e-17 
6694.00 4.1283e-17 
6695.50 4.1198e-17 
6697.00 4.1562e-17 
6698.50 4.2192e-17 
6700.00 4.1802e-17 
6701.50 4.1849e-17 
6703.00 4.1438e-17 
6704.50 4.2119e-17 
6706.00 4.2380e-17 
6707.50 4.2417e-17 
6709.00 4.2721e-17 
6710.50 4.1605e-17 
6712.00 4.1279e-17 
6713.50 4.1627e-17 
6715.00 4.0813e-17 
6716.50 4.0859e-17 
6718.00 4.1761e-17 
6719.50 4.2521e-17 
6721.00 4.0675e-17 
6722.50 4.0854e-17 
6724.00 4.1293e-17 
6725.50 4.1436e-17 
6727.00 4.2300e-17 
6728.50 4.1588e-17 
6730.00 4.1325e-17 
6731.50 4.1214e-17 
6733.00 4.0913e-17 
6734.50 4.2229e-17 
6736.00 4.2045e-17 
6737.50 4.2086e-17 
6739.00 4.1679e-17 
6740.50 4.2144e-17 
6742.00 4.1507e-17 
6743.50 4.1301e-17 
6745.00 4.1914e-17 
6746.50 4.2042e-17 
6748.00 4.2154e-17 
6749.50 4.1828e-17 
6751.00 4.1223e-17 
6752.50 4.1686e-17 
6754.00 4.1148e-17 
6755.50 4.0526e-17 
6757.00 4.2089e-17 
6758.50 4.1695e-17 
6760.00 4.2097e-17 
6761.50 4.1896e-17 
6763.00 4.0926e-17 
6764.50 4.1407e-17 
6766.00 4.2319e-17 
6767.50 4.1702e-17 
6769.00 4.0858e-17 
6770.50 4.1106e-17 
6772.00 4.1677e-17 
6773.50 4.2835e-17 
6775.00 4.1605e-17 
6776.50 4.1663e-17 
6778.00 4.2080e-17 
6779.50 4.0915e-17 
6781.00 4.0446e-17 
6782.50 4.1439e-17 
6784.00 4.1932e-17 
6785.50 4.0534e-17 
6787.00 4.2061e-17 
6788.50 4.2931e-17 
6790.00 4.1607e-17 
6791.50 4.0945e-17 
6793.00 4.1596e-17 
6794.50 4.0526e-17 
6796.00 4.1160e-17 
6797.50 4.2067e-17 
6799.00 4.2515e-17 
6800.50 4.2490e-17 
6802.00 4.2608e-17 
6803.50 4.2081e-17 
6805.00 4.2081e-17 
6806.50 4.1892e-17 
6808.00 4.1142e-17 
6809.50 4.1516e-17 
6811.00 4.1530e-17 
6812.50 4.1528e-17 
6814.00 4.0728e-17 
6815.50 4.0868e-17 
6817.00 4.1331e-17 
6818.50 4.1424e-17 
6820.00 4.0896e-17 
6821.50 4.1431e-17 
6823.00 4.1548e-17 
6824.50 4.1924e-17 
6826.00 4.2175e-17 
6827.50 4.3395e-17 
6829.00 4.1158e-17 
6830.50 4.1562e-17 
6832.00 4.2450e-17 
6833.50 4.3042e-17 
6835.00 4.2154e-17 
6836.50 4.2567e-17 
6838.00 4.3361e-17 
6839.50 4.2158e-17 
6841.00 4.0720e-17 
6842.50 4.1123e-17 
6844.00 4.2692e-17 
6845.50 4.2419e-17 
6847.00 4.1827e-17 
6848.50 4.3457e-17 
6850.00 4.3363e-17 
6851.50 4.2515e-17 
6853.00 4.1897e-17 
6854.50 4.2040e-17 
6856.00 4.1986e-17 
6857.50 4.1434e-17 
6859.00 4.1667e-17 
6860.50 4.2617e-17 
6862.00 4.2059e-17 
6863.50 4.1255e-17 
6865.00 4.1443e-17 
6866.50 4.0156e-17 
6868.00 3.5465e-17 
6869.50 3.2871e-17 
6871.00 3.1603e-17 
6872.50 3.1342e-17 
6874.00 3.2581e-17 
6875.50 3.4318e-17 
6877.00 3.5741e-17 
6878.50 3.6955e-17 
6880.00 3.7480e-17 
6881.50 4.0190e-17 
6883.00 4.2183e-17 
6884.50 4.1337e-17 
6886.00 4.0099e-17 
6887.50 3.8976e-17 
6889.00 3.7369e-17 
6890.50 3.7478e-17 
6892.00 3.7536e-17 
6893.50 3.8646e-17 
6895.00 3.8896e-17 
6896.50 3.8381e-17 
6898.00 3.8955e-17 
6899.50 3.8554e-17 
6901.00 3.8442e-17 
6902.50 3.8714e-17 
6904.00 3.9749e-17 
6905.50 3.9298e-17 
6907.00 4.0751e-17 
6908.50 4.1392e-17 
6910.00 4.0071e-17 
6911.50 4.0203e-17 
6913.00 4.0760e-17 
6914.50 4.0089e-17 
6916.00 4.1595e-17 
6917.50 4.1846e-17 
6919.00 4.0993e-17 
6920.50 3.9472e-17 
6922.00 4.0265e-17 
6923.50 4.0826e-17 
6925.00 4.1284e-17 
6926.50 4.2094e-17 
6928.00 4.2149e-17 
6929.50 4.0808e-17 
6931.00 4.1019e-17 
6932.50 4.1480e-17 
6934.00 4.1048e-17 
6935.50 4.1499e-17 
6937.00 4.2624e-17 
6938.50 4.2195e-17 
6940.00 4.1223e-17 
6941.50 4.0997e-17 
6943.00 4.1596e-17 
6944.50 4.1820e-17 
6946.00 4.1090e-17 
6947.50 4.2726e-17 
6949.00 4.2183e-17 
6950.50 4.1633e-17 
6952.00 4.1975e-17 
6953.50 4.1897e-17 
6955.00 4.1710e-17 
6956.50 4.1853e-17 
6958.00 4.1476e-17 
6959.50 4.1719e-17 
6961.00 4.1825e-17 
6962.50 4.1287e-17 
6964.00 4.0382e-17 
6965.50 4.2288e-17 
6967.00 4.2742e-17 
6968.50 4.2274e-17 
6970.00 4.1756e-17 
6971.50 4.1810e-17 
6973.00 4.1963e-17 
6974.50 4.1844e-17 
6976.00 4.2567e-17 
6977.50 4.2842e-17 
6979.00 4.1721e-17 
6980.50 4.0775e-17 
6982.00 4.0890e-17 
6983.50 4.2174e-17 
6985.00 4.1636e-17 
6986.50 4.1717e-17 
6988.00 4.1289e-17 
6989.50 4.1075e-17 
6991.00 4.1714e-17 
6992.50 4.1511e-17 
6994.00 4.0669e-17 
6995.50 4.1219e-17 
6997.00 4.1063e-17 
6998.50 4.0891e-17 
7000.00 4.0585e-17 
7001.50 4.1224e-17 
7003.00 4.1989e-17 
7004.50 4.1121e-17 
7006.00 4.0511e-17 
7007.50 4.0588e-17 
7009.00 4.0652e-17 
7010.50 3.9831e-17 
7012.00 4.0616e-17 
7013.50 4.1603e-17 
7015.00 4.2351e-17 
7016.50 4.1585e-17 
7018.00 4.1270e-17 
7019.50 4.1622e-17 
7021.00 4.0887e-17 
7022.50 4.0507e-17 
7024.00 4.0649e-17 
7025.50 4.0953e-17 
7027.00 3.9981e-17 
7028.50 3.9733e-17 
7030.00 4.0086e-17 
7031.50 3.9885e-17 
7033.00 4.0238e-17 
7034.50 4.0679e-17 
7036.00 4.0202e-17 
7037.50 3.9862e-17 
7039.00 3.9979e-17 
7040.50 4.0184e-17 
7042.00 3.9618e-17 
7043.50 3.9764e-17 
7045.00 3.9660e-17 
7046.50 4.0054e-17 
7048.00 4.0404e-17 
7049.50 4.1011e-17 
7051.00 4.1373e-17 
7052.50 4.0324e-17 
7054.00 4.0750e-17 
7055.50 4.0507e-17 
7057.00 4.1282e-17 
7058.50 3.9887e-17 
7060.00 3.9338e-17 
7061.50 3.9921e-17 
7063.00 3.9949e-17 
7064.50 4.0091e-17 
7066.00 4.0308e-17 
7067.50 4.0515e-17 
7069.00 4.0182e-17 
7070.50 4.0014e-17 
7072.00 3.9963e-17 
7073.50 3.9681e-17 
7075.00 3.9526e-17 
7076.50 3.8730e-17 
7078.00 3.9373e-17 
7079.50 3.9842e-17 
7081.00 4.0354e-17 
7082.50 3.9227e-17 
7084.00 4.0314e-17 
7085.50 4.0353e-17 
7087.00 4.0170e-17 
7088.50 3.9005e-17 
7090.00 4.0053e-17 
7091.50 3.9761e-17 
7093.00 3.9869e-17 
7094.50 4.0334e-17 
7096.00 4.0054e-17 
7097.50 3.9908e-17 
7099.00 3.9867e-17 
7100.50 4.0414e-17 
7102.00 3.9756e-17 
7103.50 3.9867e-17 
7105.00 3.9538e-17 
7106.50 4.0162e-17 
7108.00 3.9662e-17 
7109.50 3.9629e-17 
7111.00 4.0470e-17 
7112.50 4.0502e-17 
7114.00 4.0047e-17 
7115.50 4.0096e-17 
7117.00 4.0429e-17 
7118.50 4.0811e-17 
7120.00 4.1048e-17 
7121.50 4.2133e-17 
7123.00 4.0992e-17 
7124.50 4.0801e-17 
7126.00 4.0392e-17 
7127.50 4.0385e-17 
7129.00 3.9546e-17 
7130.50 4.0155e-17 
7132.00 4.1168e-17 
7133.50 4.1623e-17 
7135.00 4.2346e-17 
7136.50 4.1355e-17 
7138.00 4.1912e-17 
7139.50 4.1075e-17 
7141.00 4.0379e-17 
7142.50 4.0048e-17 
7144.00 3.9548e-17 
7145.50 3.9909e-17 
7147.00 4.0702e-17 
7148.50 4.1458e-17 
7150.00 4.0567e-17 
7151.50 4.0484e-17 
7153.00 3.9988e-17 
7154.50 4.0372e-17 
7156.00 3.9477e-17 
7157.50 4.0529e-17 
7159.00 4.0461e-17 
7160.50 4.0826e-17 
7162.00 3.9634e-17 
7163.50 3.9986e-17 
7165.00 4.0340e-17 
7166.50 3.9279e-17 
7168.00 3.8243e-17 
7169.50 3.7818e-17 
7171.00 3.9845e-17 
7172.50 4.0464e-17 
7174.00 3.9625e-17 
7175.50 3.9929e-17 
7177.00 3.9683e-17 
7178.50 3.9988e-17 
7180.00 3.9410e-17 
7181.50 3.9038e-17 
7183.00 3.8504e-17 
7184.50 3.8842e-17 
7186.00 3.7901e-17 
7187.50 3.8921e-17 
7189.00 3.8594e-17 
7190.50 3.8579e-17 
7192.00 3.8622e-17 
7193.50 3.8846e-17 
7195.00 3.8871e-17 
7196.50 4.0132e-17 
7198.00 3.9809e-17 
7199.50 3.9459e-17 
7201.00 3.8638e-17 
7202.50 3.8080e-17 
7204.00 3.8685e-17 
7205.50 3.9038e-17 
7207.00 3.9467e-17 
7208.50 4.0484e-17 
7210.00 4.1162e-17 
7211.50 4.0963e-17 
7213.00 4.1867e-17 
7214.50 4.1246e-17 
7216.00 4.0410e-17 
7217.50 4.0923e-17 
7219.00 3.9206e-17 
7220.50 4.0058e-17 
7222.00 4.1073e-17 
7223.50 4.0512e-17 
7225.00 4.0640e-17 
7226.50 4.0876e-17 
7228.00 4.0169e-17 
7229.50 3.9840e-17 
7231.00 3.9602e-17 
7232.50 3.8867e-17 
7234.00 3.9701e-17 
7235.50 3.8046e-17 
7237.00 3.8862e-17 
7238.50 3.9940e-17 
7240.00 3.9888e-17 
7241.50 4.0013e-17 
7243.00 3.9718e-17 
7244.50 4.0068e-17 
7246.00 3.9937e-17 
7247.50 4.0087e-17 
7249.00 3.9692e-17 
7250.50 4.0068e-17 
7252.00 3.8988e-17 
7253.50 3.8819e-17 
7255.00 3.8864e-17 
7256.50 3.9500e-17 
7258.00 4.0098e-17 
7259.50 3.9565e-17 
7261.00 3.9676e-17 
7262.50 4.0284e-17 
7264.00 3.9089e-17 
7265.50 3.9367e-17 
7267.00 3.9443e-17 
7268.50 3.8804e-17 
7270.00 4.0047e-17 
7271.50 3.8946e-17 
7273.00 3.9048e-17 
7274.50 4.0022e-17 
7276.00 4.0466e-17 
7277.50 3.9997e-17 
7279.00 3.8202e-17 
7280.50 3.9256e-17 
7282.00 3.9440e-17 
7283.50 3.9063e-17 
7285.00 3.9594e-17 
7286.50 3.9481e-17 
7288.00 3.9302e-17 
7289.50 3.9870e-17 
7291.00 3.9687e-17 
7292.50 3.8983e-17 
7294.00 3.9790e-17 
7295.50 3.8854e-17 
7297.00 3.8485e-17 
7298.50 3.9755e-17 
7300.00 3.9259e-17 
7301.50 3.7972e-17 
7303.00 3.8711e-17 
7304.50 3.9499e-17 
7306.00 3.8990e-17 
7307.50 3.9933e-17 
7309.00 3.9687e-17 
7310.50 3.8353e-17 
7312.00 3.8985e-17 
7313.50 3.9157e-17 
7315.00 3.9792e-17 
7316.50 3.9305e-17 
7318.00 3.9240e-17 
7319.50 3.8883e-17 
7321.00 3.8982e-17 
7322.50 3.8542e-17 
7324.00 3.9288e-17 
7325.50 4.0020e-17 
7327.00 4.0028e-17 
7328.50 4.0787e-17 
7330.00 3.9826e-17 
7331.50 3.9707e-17 
7333.00 4.0487e-17 
7334.50 3.9869e-17 
7336.00 3.8658e-17 
7337.50 3.8988e-17 
7339.00 3.9287e-17 
7340.50 3.8658e-17 
7342.00 3.8625e-17 
7343.50 3.9326e-17 
7345.00 3.9376e-17 
7346.50 3.8359e-17 
7348.00 3.7650e-17 
7349.50 3.8814e-17 
7351.00 3.8869e-17 
7352.50 3.7820e-17 
7354.00 3.8470e-17 
7355.50 3.9576e-17 
7357.00 3.9465e-17 
7358.50 3.9182e-17 
7360.00 3.8928e-17 
7361.50 3.9110e-17 
7363.00 3.9848e-17 
7364.50 3.9222e-17 
7366.00 3.8625e-17 
7367.50 3.9589e-17 
7369.00 3.9727e-17 
7370.50 3.9477e-17 
7372.00 3.9097e-17 
7373.50 3.9380e-17 
7375.00 3.9524e-17 
7376.50 3.9098e-17 
7378.00 3.8874e-17 
7379.50 3.8423e-17 
7381.00 3.9130e-17 
7382.50 4.0013e-17 
7384.00 3.8885e-17 
7385.50 3.8891e-17 
7387.00 3.8389e-17 
7388.50 3.8708e-17 
7390.00 3.9163e-17 
7391.50 3.8590e-17 
7393.00 3.8564e-17 
7394.50 3.8039e-17 
7396.00 3.8039e-17 
7397.50 3.8743e-17 
7399.00 3.8219e-17 
7400.50 3.8448e-17 
7402.00 3.9776e-17 
7403.50 3.9461e-17 
7405.00 3.8489e-17 
7406.50 3.8169e-17 
7408.00 3.9762e-17 
7409.50 3.8545e-17 
7411.00 3.8761e-17 
7412.50 3.9259e-17 
7414.00 3.8140e-17 
7415.50 3.8743e-17 
7417.00 3.7766e-17 
7418.50 3.8448e-17 
7420.00 3.9175e-17 
7421.50 3.9212e-17 
7423.00 3.8826e-17 
7424.50 3.8558e-17 
7426.00 3.9163e-17 
7427.50 3.9361e-17 
7429.00 3.9399e-17 
7430.50 4.0031e-17 
7432.00 4.0498e-17 
7433.50 3.9738e-17 
7435.00 3.8548e-17 
7436.50 3.8671e-17 
7438.00 3.8579e-17 
7439.50 3.9561e-17 
7441.00 4.0050e-17 
7442.50 3.9520e-17 
7444.00 3.9896e-17 
7445.50 3.8839e-17 
7447.00 3.8295e-17 
7448.50 3.7729e-17 
7450.00 3.8197e-17 
7451.50 3.8273e-17 
7453.00 3.8222e-17 
7454.50 3.8868e-17 
7456.00 3.9372e-17 
7457.50 3.8716e-17 
7459.00 3.8545e-17 
7460.50 3.9570e-17 
7462.00 3.8141e-17 
7463.50 3.6860e-17 
7465.00 3.7544e-17 
7466.50 3.8254e-17 
7468.00 3.8145e-17 
7469.50 3.7878e-17 
7471.00 3.8226e-17 
7472.50 3.8331e-17 
7474.00 3.8341e-17 
7475.50 3.7859e-17 
7477.00 3.7862e-17 
7478.50 3.8711e-17 
7480.00 3.9115e-17 
7481.50 3.7596e-17 
7483.00 3.6993e-17 
7484.50 3.7116e-17 
7486.00 3.6544e-17 
7487.50 3.6846e-17 
7489.00 3.7955e-17 
7490.50 3.7913e-17 
7492.00 3.7852e-17 
7493.50 3.7655e-17 
7495.00 3.8799e-17 
7496.50 3.8550e-17 
7498.00 3.7172e-17 
7499.50 3.6799e-17 
7501.00 3.5976e-17 
7502.50 3.7154e-17 
7504.00 3.7786e-17 
7505.50 3.7620e-17 
7507.00 3.6868e-17 
7508.50 3.6762e-17 
7510.00 3.7385e-17 
7511.50 3.7565e-17 
7513.00 3.8122e-17 
7514.50 3.7282e-17 
7516.00 3.6537e-17 
7517.50 3.5971e-17 
7519.00 3.6499e-17 
7520.50 3.7884e-17 
7522.00 3.6716e-17 
7523.50 3.7038e-17 
7525.00 3.6316e-17 
7526.50 3.6198e-17 
7528.00 3.7521e-17 
7529.50 3.7106e-17 
7531.00 3.6700e-17 
7532.50 3.6767e-17 
7534.00 3.5957e-17 
7535.50 3.5794e-17 
7537.00 3.6135e-17 
7538.50 3.6772e-17 
7540.00 3.7102e-17 
7541.50 3.5839e-17 
7543.00 3.5655e-17 
7544.50 3.6213e-17 
7546.00 3.6668e-17 
7547.50 3.6049e-17 
7549.00 3.4899e-17 
7550.50 3.5237e-17 
7552.00 3.6318e-17 
7553.50 3.5925e-17 
7555.00 3.6064e-17 
7556.50 3.6012e-17 
7558.00 3.6813e-17 
7559.50 3.7173e-17 
7561.00 3.6105e-17 
7562.50 3.4818e-17 
7564.00 3.5694e-17 
7565.50 3.7169e-17 
7567.00 3.7177e-17 
7568.50 3.6691e-17 
7570.00 3.5358e-17 
7571.50 3.5988e-17 
7573.00 3.6494e-17 
7574.50 3.7032e-17 
7576.00 3.5535e-17 
7577.50 3.5940e-17 
7579.00 3.6695e-17 
7580.50 3.5142e-17 
7582.00 3.4969e-17 
7583.50 3.5825e-17 
7585.00 3.5958e-17 
7586.50 3.5939e-17 
7588.00 3.5300e-17 
7589.50 3.6408e-17 
7591.00 3.5383e-17 
7592.50 3.3969e-17 
7594.00 2.9672e-17 
7595.50 2.5407e-17 
7597.00 2.1630e-17 
7598.50 1.8514e-17 
7600.00 1.5967e-17 
7601.50 1.4134e-17 
7603.00 1.3417e-17 
7604.50 1.2576e-17 
7606.00 1.2188e-17 
7607.50 1.2741e-17 
7609.00 1.3067e-17 
7610.50 1.3483e-17 
7612.00 1.4977e-17 
7613.50 1.7855e-17 
7615.00 2.0826e-17 
7616.50 2.4008e-17 
7618.00 2.6053e-17 
7619.50 3.0661e-17 
7621.00 2.9492e-17 
7622.50 2.6729e-17 
7624.00 2.4118e-17 
7625.50 2.1950e-17 
7627.00 2.0929e-17 
7628.50 2.0520e-17 
7630.00 2.0473e-17 
7631.50 2.0731e-17 
7633.00 2.2209e-17 
7634.50 2.2435e-17 
7636.00 2.2116e-17 
7637.50 2.2107e-17 
7639.00 2.2807e-17 
7640.50 2.1954e-17 
7642.00 2.2218e-17 
7643.50 2.4679e-17 
7645.00 2.3794e-17 
7646.50 2.5243e-17 
7648.00 2.7966e-17 
7649.50 2.7432e-17 
7651.00 2.7789e-17 
7652.50 3.0423e-17 
7654.00 3.0095e-17 
7655.50 2.8948e-17 
7657.00 3.0138e-17 
7658.50 3.1218e-17 
7660.00 3.1411e-17 
7661.50 3.1197e-17 
7663.00 3.2659e-17 
7664.50 3.2129e-17 
7666.00 3.2117e-17 
7667.50 3.2750e-17 
7669.00 3.3941e-17 
7670.50 3.3446e-17 
7672.00 3.2184e-17 
7673.50 3.3737e-17 
7675.00 3.5409e-17 
7676.50 3.5095e-17 
7678.00 3.4640e-17 
7679.50 3.5159e-17 
7681.00 3.5342e-17 
7682.50 3.5497e-17 
7684.00 3.5696e-17 
7685.50 3.5153e-17 
7687.00 3.5307e-17 
7688.50 3.6061e-17 
7690.00 3.7297e-17 
7691.50 3.7220e-17 
7693.00 3.6599e-17 
7694.50 3.6420e-17 
7696.00 3.6737e-17 
7697.50 3.6241e-17 
7699.00 3.6893e-17 
7700.50 3.6646e-17 
7702.00 3.6053e-17 
7703.50 3.6544e-17 
7705.00 3.6119e-17 
7706.50 3.7312e-17 
7708.00 3.7339e-17 
7709.50 3.6975e-17 
7711.00 3.7951e-17 
7712.50 3.7446e-17 
7714.00 3.6971e-17 
7715.50 3.8385e-17 
7717.00 3.6917e-17 
7718.50 3.6816e-17 
7720.00 3.6966e-17 
7721.50 3.4982e-17 
7723.00 3.5558e-17 
7724.50 3.6854e-17 
7726.00 3.6983e-17 
7727.50 3.7504e-17 
7729.00 3.8151e-17 
7730.50 3.8166e-17 
7732.00 3.7150e-17 
7733.50 3.7342e-17 
7735.00 3.8714e-17 
7736.50 3.7327e-17 
7738.00 3.6916e-17 
7739.50 3.7274e-17 
7741.00 3.6923e-17 
7742.50 3.6644e-17 
7744.00 3.6776e-17 
7745.50 3.8058e-17 
7747.00 3.8011e-17 
7748.50 3.6431e-17 
7750.00 3.8185e-17 
7751.50 3.6983e-17 
7753.00 3.5805e-17 
7754.50 3.5663e-17 
7756.00 3.4972e-17 
7757.50 3.6160e-17 
7759.00 3.7129e-17 
7760.50 3.7293e-17 
7762.00 3.7038e-17 
7763.50 3.7274e-17 
7765.00 3.6582e-17 
7766.50 3.6961e-17 
7768.00 3.7997e-17 
7769.50 3.7456e-17 
7771.00 3.6538e-17 
7772.50 3.7401e-17 
7774.00 3.5854e-17 
7775.50 3.8050e-17 
7777.00 3.8091e-17 
7778.50 3.7577e-17 
7780.00 3.6674e-17 
7781.50 3.7315e-17 
7783.00 3.6865e-17 
7784.50 3.7527e-17 
7786.00 3.7358e-17 
7787.50 3.7207e-17 
7789.00 3.7599e-17 
7790.50 3.8861e-17 
7792.00 3.9592e-17 
7793.50 3.9029e-17 
7795.00 3.7247e-17 
7796.50 3.7994e-17 
7798.00 3.8134e-17 
7799.50 3.8173e-17 
7801.00 3.7865e-17 
7802.50 3.8081e-17 
7804.00 3.8263e-17 
7805.50 3.8568e-17 
7807.00 3.8539e-17 
7808.50 3.6996e-17 
7810.00 3.8270e-17 
7811.50 3.6656e-17 
7813.00 3.7481e-17 
7814.50 3.8720e-17 
7816.00 3.9250e-17 
7817.50 3.8489e-17 
7819.00 3.7595e-17 
7820.50 3.7827e-17 
7822.00 3.8121e-17 
7823.50 3.9157e-17 
7825.00 3.9129e-17 
7826.50 3.8998e-17 
7828.00 3.7914e-17 
7829.50 3.7845e-17 
7831.00 3.7637e-17 
7832.50 3.8796e-17 
7834.00 4.0300e-17 
7835.50 4.0130e-17 
7837.00 3.8767e-17 
7838.50 3.8714e-17 
7840.00 3.8496e-17 
7841.50 3.8737e-17 
7843.00 3.8897e-17 
7844.50 3.9766e-17 
7846.00 3.9560e-17 
7847.50 4.0238e-17 
7849.00 4.0718e-17 
7850.50 4.0427e-17 
7852.00 4.1015e-17 
7853.50 4.0861e-17 
7855.00 4.1380e-17 
7856.50 4.2068e-17 
7858.00 4.1316e-17 
7859.50 4.1242e-17 
7861.00 4.1495e-17 
7862.50 4.1460e-17 
7864.00 4.1029e-17 
7865.50 4.0853e-17 
7867.00 4.1527e-17 
7868.50 4.1962e-17 
7870.00 4.2876e-17 
7871.50 4.2214e-17 
7873.00 4.3492e-17 
7874.50 4.3447e-17 
7876.00 4.2012e-17 
7877.50 4.1795e-17 
7879.00 4.2194e-17 
7880.50 4.3589e-17 
7882.00 4.3686e-17 
7883.50 4.3489e-17 
7885.00 4.4746e-17 
7886.50 4.5282e-17 
7888.00 4.4819e-17 
7889.50 4.4813e-17 
7891.00 4.5824e-17 
7892.50 4.5905e-17 
7894.00 4.6067e-17 
7895.50 4.5372e-17 
7897.00 4.6531e-17 
7898.50 4.5391e-17 
7900.00 4.6834e-17 
7901.50 4.7615e-17 
7903.00 4.7908e-17 
7904.50 4.6517e-17 
7906.00 4.7173e-17 
7907.50 4.8116e-17 
7909.00 4.7881e-17 
7910.50 4.8944e-17 
7912.00 4.8938e-17 
7913.50 5.0673e-17 
7915.00 5.1474e-17 
7916.50 4.9015e-17 
7918.00 5.0504e-17 
7919.50 5.1912e-17 
7921.00 5.1517e-17 
7922.50 5.1872e-17 
7924.00 5.1406e-17 
7925.50 5.2408e-17 
7927.00 5.2905e-17 
7928.50 5.1148e-17 
7930.00 5.1335e-17 
7931.50 5.2092e-17 
7933.00 5.2052e-17 
7934.50 5.2505e-17 
7936.00 5.3900e-17 
7937.50 5.3627e-17 
7939.00 5.3893e-17 
7940.50 5.3301e-17 
7942.00 5.3169e-17 
7943.50 5.3815e-17 
7945.00 5.4365e-17 
7946.50 5.3659e-17 
7948.00 5.4289e-17 
7949.50 5.4313e-17 
7951.00 5.5002e-17 
7952.50 5.3770e-17 
7954.00 5.2371e-17 
7955.50 5.3102e-17 
7957.00 5.4643e-17 
7958.50 5.4332e-17 
7960.00 5.2938e-17 
7961.50 5.2177e-17 
7963.00 5.2038e-17 
7964.50 5.2086e-17 
7966.00 5.1905e-17 
7967.50 5.1963e-17 
7969.00 5.1433e-17 
7970.50 4.9966e-17 
7972.00 5.0071e-17 
7973.50 5.0241e-17 
7975.00 4.9905e-17 
7976.50 4.9771e-17 
7978.00 4.9658e-17 
7979.50 4.9671e-17 
7981.00 4.9255e-17 
7982.50 4.8555e-17 
7984.00 4.8370e-17 
7985.50 4.7438e-17 
7987.00 4.7537e-17 
7988.50 4.8023e-17 
7990.00 4.7495e-17 
7991.50 4.7146e-17 
7993.00 4.7660e-17 
7994.50 4.6073e-17 
7996.00 4.6963e-17 
7997.50 4.7531e-17 
7999.00 4.5675e-17 
8000.50 4.5435e-17 
8002.00 4.4771e-17 
8003.50 4.3287e-17 
8005.00 4.3396e-17 
8006.50 4.2262e-17 
8008.00 4.2593e-17 
8009.50 4.3265e-17 
8011.00 4.4184e-17 
8012.50 4.3487e-17 
8014.00 4.3162e-17 
8015.50 4.2786e-17 
8017.00 4.2896e-17 
8018.50 4.1960e-17 
8020.00 4.2314e-17 
8021.50 4.1902e-17 
8023.00 4.1731e-17 
8024.50 4.2702e-17 
8026.00 4.3955e-17 
8027.50 4.1433e-17 
8029.00 4.1253e-17 
8030.50 4.1216e-17 
8032.00 4.1013e-17 
8033.50 4.0375e-17 
8035.00 4.1133e-17 
8036.50 4.0799e-17 
8038.00 4.0883e-17 
8039.50 4.1903e-17 
8041.00 4.0213e-17 
8042.50 3.9431e-17 
8044.00 3.9389e-17 
8045.50 3.8935e-17 
8047.00 3.9331e-17 
8048.50 3.9205e-17 
8050.00 3.9216e-17 
8051.50 3.9477e-17 
8053.00 3.9904e-17 
8054.50 3.9482e-17 
8056.00 3.9451e-17 
8057.50 3.8777e-17 
8059.00 3.8412e-17 
8060.50 3.8913e-17 
8062.00 3.9481e-17 
8063.50 3.7664e-17 
8065.00 3.7703e-17 
8066.50 3.8370e-17 
8068.00 3.9879e-17 
8069.50 3.8844e-17 
8071.00 3.7473e-17 
8072.50 3.6759e-17 
8074.00 3.7113e-17 
8075.50 3.6429e-17 
8077.00 3.6540e-17 
8078.50 3.7101e-17 
8080.00 3.7204e-17 
8081.50 3.7597e-17 
8083.00 3.6940e-17 
8084.50 3.7509e-17 
8086.00 3.7273e-17 
8087.50 3.7286e-17 
8089.00 3.8202e-17 
8090.50 3.6722e-17 
8092.00 3.7998e-17 
8093.50 3.8176e-17 
8095.00 3.6742e-17 
8096.50 3.5774e-17 
8098.00 3.6123e-17 
8099.50 3.8082e-17 
8101.00 3.7626e-17 
8102.50 3.8096e-17 
8104.00 3.8012e-17 
8105.50 3.6320e-17 
8107.00 3.6067e-17 
8108.50 3.6910e-17 
8110.00 3.6885e-17 
8111.50 3.6458e-17 
8113.00 3.7068e-17 
8114.50 3.7413e-17 
8116.00 3.7533e-17 
8117.50 3.7974e-17 
8119.00 3.7043e-17 
8120.50 3.6521e-17 
8122.00 3.6801e-17 
8123.50 3.6261e-17 
8125.00 3.6842e-17 
8126.50 3.4898e-17 
8128.00 3.5332e-17 
8129.50 3.6595e-17 
8131.00 3.6679e-17 
8132.50 3.5499e-17 
8134.00 3.5303e-17 
8135.50 3.5027e-17 
8137.00 3.5568e-17 
8138.50 3.5604e-17 
8140.00 3.6584e-17 
8141.50 3.5711e-17 
8143.00 3.5163e-17 
8144.50 3.5633e-17 
8146.00 3.6125e-17 
8147.50 3.6191e-17 
8149.00 3.5090e-17 
8150.50 3.4741e-17 
8152.00 3.4548e-17 
8153.50 3.5373e-17 
8155.00 3.5901e-17 
8156.50 3.5488e-17 
8158.00 3.4865e-17 
8159.50 3.5534e-17 
8161.00 3.4859e-17 
8162.50 3.3650e-17 
8164.00 3.2418e-17 
8165.50 3.3595e-17 
8167.00 3.5299e-17 
8168.50 3.5059e-17 
8170.00 3.3393e-17 
8171.50 3.2574e-17 
8173.00 3.3606e-17 
8174.50 3.4300e-17 
8176.00 3.4778e-17 
8177.50 3.4848e-17 
8179.00 3.4390e-17 
8180.50 3.5235e-17 
8182.00 3.5618e-17 
8183.50 3.5122e-17 
8185.00 3.4994e-17 
8186.50 3.4976e-17 
8188.00 3.3889e-17 
8189.50 3.2780e-17 
8191.00 3.2230e-17 
8192.50 3.3024e-17 
8194.00 3.3295e-17 
8195.50 3.3179e-17 
8197.00 3.3610e-17 
8198.50 3.2401e-17 
8200.00 3.2461e-17 
8201.50 3.3382e-17 
8203.00 3.4814e-17 
8204.50 3.3298e-17 
8206.00 3.4379e-17 
8207.50 3.4394e-17 
8209.00 3.3539e-17 
8210.50 3.3899e-17 
8212.00 3.3227e-17 
8213.50 3.3770e-17 
8215.00 3.3482e-17 
8216.50 3.3162e-17 
8218.00 3.4074e-17 
8219.50 3.2867e-17 
8221.00 3.2749e-17 
8222.50 3.2947e-17 
8224.00 3.3541e-17 
8225.50 3.3378e-17 
8227.00 3.1845e-17 
8228.50 3.0346e-17 
8230.00 2.9833e-17 
8231.50 2.9981e-17 
8233.00 3.1324e-17 
8234.50 3.2621e-17 
8236.00 3.3216e-17 
8237.50 3.3581e-17 
8239.00 3.3151e-17 
8240.50 3.3009e-17 
8242.00 3.2941e-17 
8243.50 3.2170e-17 
8245.00 3.2642e-17 
8246.50 3.3973e-17 
8248.00 3.2982e-17 
8249.50 3.2585e-17 
8251.00 3.3084e-17 
8252.50 3.3456e-17 
8254.00 3.4195e-17 
8255.50 3.2912e-17 
8257.00 3.2204e-17 
8258.50 3.1538e-17 
8260.00 3.2820e-17 
8261.50 3.3413e-17 
8263.00 3.2654e-17 
8264.50 3.2630e-17 
8266.00 3.3479e-17 
8267.50 3.3862e-17 
8269.00 3.3119e-17 
8270.50 3.3059e-17 
8272.00 3.1854e-17 
8273.50 3.1810e-17 
8275.00 3.2923e-17 
8276.50 3.2443e-17 
8278.00 3.0869e-17 
8279.50 3.2041e-17 
8281.00 3.3719e-17 
8282.50 3.2970e-17 
8284.00 3.3253e-17 
8285.50 3.4013e-17 
8287.00 3.4100e-17 
8288.50 3.2005e-17 
8290.00 3.2078e-17 
8291.50 3.3523e-17 
8293.00 3.3665e-17 
8294.50 3.2335e-17 
8296.00 3.3912e-17 
8297.50 3.3540e-17 
8299.00 3.4027e-17 
8300.50 3.3150e-17 
8302.00 3.3127e-17 
8303.50 3.4756e-17 
8305.00 3.2378e-17 
8306.50 3.2201e-17 
8308.00 3.2890e-17 
8309.50 3.4219e-17 
8311.00 3.4250e-17 
8312.50 3.4217e-17 
8314.00 3.4947e-17 
8315.50 3.5380e-17 
8317.00 3.4557e-17 
8318.50 3.3602e-17 
8320.00 3.3531e-17 
8321.50 3.3347e-17 
8323.00 3.3909e-17 
8324.50 3.4142e-17 
8326.00 3.3289e-17 
8327.50 3.3072e-17 
8329.00 3.3005e-17 
8330.50 3.3096e-17 
8332.00 3.4721e-17 
8333.50 3.4540e-17 
8335.00 3.4249e-17 
8336.50 3.3686e-17 
8338.00 3.3258e-17 
8339.50 3.2657e-17 
8341.00 3.2976e-17 
8342.50 3.3175e-17 
8344.00 3.5643e-17 
8345.50 3.4038e-17 
8347.00 3.3140e-17 
8348.50 3.3817e-17 
8350.00 3.4937e-17 
8351.50 3.5612e-17 
8353.00 3.4732e-17 
8354.50 3.5191e-17 
8356.00 3.4418e-17 
8357.50 3.4324e-17 
8359.00 3.5415e-17 
8360.50 3.5676e-17 
8362.00 3.5099e-17 
8363.50 3.5052e-17 
8365.00 3.3988e-17 
8366.50 3.4185e-17 
8368.00 3.4421e-17 
8369.50 3.3951e-17 
8371.00 3.5276e-17 
8372.50 3.5157e-17 
8374.00 3.4499e-17 
8375.50 3.3079e-17 
8377.00 3.3725e-17 
8378.50 3.4120e-17 
8380.00 3.4752e-17 
8381.50 3.5373e-17 
8383.00 3.4129e-17 
8384.50 3.4491e-17 
8386.00 3.4121e-17 
8387.50 3.4113e-17 
8389.00 3.2637e-17 
8390.50 3.3396e-17 
8392.00 3.4170e-17 
8393.50 3.4192e-17 
8395.00 3.4148e-17 
8396.50 3.3343e-17 
8398.00 3.4873e-17 
8399.50 3.5322e-17 
8401.00 3.6048e-17 
8402.50 3.4708e-17 
8404.00 3.6263e-17 
8405.50 3.6283e-17 
8407.00 3.4486e-17 
8408.50 3.2648e-17 
8410.00 3.3395e-17 
8411.50 3.4454e-17 
8413.00 3.6314e-17 
8414.50 3.5255e-17 
8416.00 3.5121e-17 
8417.50 3.3990e-17 
8419.00 3.4570e-17 
8420.50 3.4566e-17 
8422.00 3.3595e-17 
8423.50 3.4135e-17 
8425.00 3.4297e-17 
8426.50 3.3811e-17 
8428.00 3.3703e-17 
8429.50 3.2775e-17 
8431.00 3.2235e-17 
8432.50 3.3157e-17 
8434.00 3.2204e-17 
8435.50 3.2448e-17 
8437.00 3.3293e-17 
8438.50 3.4566e-17 
8440.00 3.3898e-17 
8441.50 3.3306e-17 
8443.00 3.3584e-17 
8444.50 3.3971e-17 
8446.00 3.3822e-17 
8447.50 3.3301e-17 
8449.00 3.4092e-17 
8450.50 3.4696e-17 
8452.00 3.3704e-17 
8453.50 3.2858e-17 
8455.00 3.2780e-17 
8456.50 3.1692e-17 
8458.00 3.3659e-17 
8459.50 3.4483e-17 
8461.00 3.3785e-17 
8462.50 3.2689e-17 
8464.00 3.3160e-17 
8465.50 3.2503e-17 
8467.00 3.3615e-17 
8468.50 3.4921e-17 
8470.00 3.2613e-17 
8471.50 3.3097e-17 
8473.00 3.3027e-17 
8474.50 3.2226e-17 
8476.00 3.3883e-17 
8477.50 3.4498e-17 
8479.00 3.3013e-17 
8480.50 3.3346e-17 
8482.00 3.2055e-17 
8483.50 3.2535e-17 
8485.00 3.2475e-17 
8486.50 3.1646e-17 
8488.00 3.1820e-17 
8489.50 3.2460e-17 
8491.00 3.2405e-17 
8492.50 3.2003e-17 
8494.00 3.2076e-17 
8495.50 3.2958e-17 
8497.00 3.2156e-17 
8498.50 3.1790e-17 
8500.00 3.2237e-17 
8501.50 3.1542e-17 
8503.00 3.0252e-17 
8504.50 3.1825e-17 
8506.00 3.2038e-17 
8507.50 3.0221e-17 
8509.00 3.0891e-17 
8510.50 3.2258e-17 
8512.00 3.1472e-17 
8513.50 3.1450e-17 
8515.00 3.1855e-17 
8516.50 3.1346e-17 
8518.00 3.1520e-17 
8519.50 3.2534e-17 
8521.00 3.1652e-17 
8522.50 3.1097e-17 
8524.00 3.1751e-17 
8525.50 3.0370e-17 
8527.00 2.8730e-17 
8528.50 2.9105e-17 
8530.00 3.1021e-17 
8531.50 3.1009e-17 
8533.00 3.0636e-17 
8534.50 2.9909e-17 
8536.00 3.0521e-17 
8537.50 3.0553e-17 
8539.00 3.0573e-17 
8540.50 3.0466e-17 
8542.00 2.9202e-17 
8543.50 2.9323e-17 
8545.00 2.9773e-17 
8546.50 2.9551e-17 
8548.00 2.9623e-17 
8549.50 2.9646e-17 
8551.00 2.8606e-17 
8552.50 2.9067e-17 
8554.00 2.9573e-17 
8555.50 3.0008e-17 
8557.00 2.8585e-17 
8558.50 2.8205e-17 
8560.00 2.8939e-17 
8561.50 2.9387e-17 
8563.00 2.9289e-17 
8564.50 2.9691e-17 
8566.00 2.9252e-17 
8567.50 2.8236e-17 
8569.00 2.8436e-17 
8570.50 2.7252e-17 
8572.00 2.7640e-17 
8573.50 2.8022e-17 
8575.00 2.9323e-17 
8576.50 3.0188e-17 
8578.00 2.9090e-17 
8579.50 2.7306e-17 
8581.00 2.7080e-17 
8582.50 2.7529e-17 
8584.00 2.6528e-17 
8585.50 2.6732e-17 
8587.00 2.7609e-17 
8588.50 2.7747e-17 
8590.00 2.8490e-17 
8591.50 2.8412e-17 
8593.00 2.7121e-17 
8594.50 2.6713e-17 
8596.00 2.8924e-17 
8597.50 2.8733e-17 
8599.00 2.8068e-17 
8600.50 2.8204e-17 
8602.00 2.7825e-17 
8603.50 2.8359e-17 
8605.00 2.8362e-17 
8606.50 2.8402e-17 
8608.00 2.7802e-17 
8609.50 2.8614e-17 
8611.00 2.8858e-17 
8612.50 2.8429e-17 
8614.00 2.8125e-17 
8615.50 2.7569e-17 
8617.00 2.7271e-17 
8618.50 2.7992e-17 
8620.00 2.7665e-17 
8621.50 2.6558e-17 
8623.00 2.8177e-17 
8624.50 2.8118e-17 
8626.00 2.6897e-17 
8627.50 2.7262e-17 
8629.00 2.8472e-17 
8630.50 2.7108e-17 
8632.00 2.7292e-17 
8633.50 2.8022e-17 
8635.00 2.8011e-17 
8636.50 2.8827e-17 
8638.00 2.8785e-17 
8639.50 2.6128e-17 
8641.00 2.7554e-17 
8642.50 2.9044e-17 
8644.00 2.8481e-17 
8645.50 2.8000e-17 
8647.00 2.6817e-17 
8648.50 2.8475e-17 
8650.00 2.9532e-17 
8651.50 2.8813e-17 
8653.00 2.7129e-17 
8654.50 2.8945e-17 
8656.00 2.8615e-17 
8657.50 2.8323e-17 
8659.00 2.7372e-17 
8660.50 2.8212e-17 
8662.00 2.8466e-17 
8663.50 2.8443e-17 
8665.00 3.0950e-17 
8666.50 3.0776e-17 
8668.00 2.8199e-17 
8669.50 2.7410e-17 
8671.00 2.6148e-17 
8672.50 2.7138e-17 
8674.00 2.6886e-17 
8675.50 2.8553e-17 
8677.00 2.8535e-17 
8678.50 2.8534e-17 
8680.00 2.7379e-17 
8681.50 2.7199e-17 
8683.00 2.8649e-17 
8684.50 2.8841e-17 
8686.00 2.7127e-17 
8687.50 2.8997e-17 
8689.00 2.8208e-17 
8690.50 2.8962e-17 
8692.00 2.8527e-17 
8693.50 2.7319e-17 
8695.00 2.7088e-17 
8696.50 2.7697e-17 
8698.00 2.8873e-17 
8699.50 2.8001e-17 
8701.00 2.8583e-17 
8702.50 2.8152e-17 
8704.00 2.9845e-17 
8705.50 2.7729e-17 
8707.00 2.7142e-17 
8708.50 2.7140e-17 
8710.00 2.8139e-17 
8711.50 2.9720e-17 
8713.00 2.8639e-17 
8714.50 2.8213e-17 
8716.00 2.8120e-17 
8717.50 2.9080e-17 
8719.00 2.9698e-17 
8720.50 2.8613e-17 
8722.00 2.7865e-17 
8723.50 2.8101e-17 
8725.00 2.8795e-17 
8726.50 2.9300e-17 
8728.00 2.8702e-17 
8729.50 2.8477e-17 
8731.00 2.9442e-17 
8732.50 2.9912e-17 
8734.00 2.9877e-17 
8735.50 2.8847e-17 
8737.00 2.8991e-17 
8738.50 2.8973e-17 
8740.00 2.7916e-17 
8741.50 2.9072e-17 
8743.00 2.8934e-17 
8744.50 2.8232e-17 
8746.00 2.7653e-17 
8747.50 2.7428e-17 
8749.00 2.8430e-17 
8750.50 2.8370e-17 
8752.00 2.9132e-17 
8753.50 2.8197e-17 
8755.00 2.8110e-17 
8756.50 2.7810e-17 
8758.00 2.7292e-17 
8759.50 2.8171e-17 
8761.00 2.8599e-17 
8762.50 2.8775e-17 
8764.00 2.8824e-17 
8765.50 3.0014e-17 
8767.00 2.9228e-17 
8768.50 2.8144e-17 
8770.00 2.7391e-17 
8771.50 2.7490e-17 
8773.00 2.8951e-17 
8774.50 2.9636e-17 
8776.00 2.9223e-17 
8777.50 2.8828e-17 
8779.00 3.0335e-17 
8780.50 3.0387e-17 
8782.00 2.9012e-17 
8783.50 3.0458e-17 
8785.00 3.0214e-17 
8786.50 2.9477e-17 
8788.00 2.8513e-17 
8789.50 2.8624e-17 
8791.00 2.8782e-17 
8792.50 2.8050e-17 
8794.00 2.9030e-17 
8795.50 3.0515e-17 
8797.00 2.9398e-17 
8798.50 3.0109e-17 
8800.00 2.8842e-17 
8801.50 2.8868e-17 
8803.00 2.8844e-17 
8804.50 2.7845e-17 
8806.00 2.8469e-17 
8807.50 2.8334e-17 
8809.00 2.8038e-17 
8810.50 2.9971e-17 
8812.00 3.0147e-17 
8813.50 2.8635e-17 
8815.00 2.8834e-17 
8816.50 2.8974e-17 
8818.00 2.8628e-17 
8819.50 2.9700e-17 
8821.00 3.0206e-17 
8822.50 3.0170e-17 
8824.00 2.8486e-17 
8825.50 2.8988e-17 
8827.00 2.9751e-17 
8828.50 2.9218e-17 
8830.00 2.7357e-17 
8831.50 2.9035e-17 
8833.00 3.0128e-17 
8834.50 2.9785e-17 
8836.00 3.0864e-17 
8837.50 2.9877e-17 
8839.00 2.9410e-17 
8840.50 3.0845e-17 
8842.00 3.0857e-17 
8843.50 3.0121e-17 
8845.00 2.9269e-17 
8846.50 2.9865e-17 
8848.00 2.9180e-17 
8849.50 3.0299e-17 
8851.00 3.0193e-17 
8852.50 2.9708e-17 
8854.00 3.0380e-17 
8855.50 3.0730e-17 
8857.00 3.0448e-17 
8858.50 3.0130e-17 
8860.00 3.0064e-17 
8861.50 2.9123e-17 
8863.00 2.9843e-17 
8864.50 2.9901e-17 
8866.00 2.9186e-17 
8867.50 2.9539e-17 
8869.00 2.8845e-17 
8870.50 2.9847e-17 
8872.00 2.9574e-17 
8873.50 3.0121e-17 
8875.00 2.9718e-17 
8876.50 2.9150e-17 
8878.00 3.0217e-17 
8879.50 3.0021e-17 
8881.00 2.9763e-17 
8882.50 3.0565e-17 
8884.00 3.0459e-17 
8885.50 3.0721e-17 
8887.00 3.1580e-17 
8888.50 3.1287e-17 
8890.00 3.0166e-17 
8891.50 2.9583e-17 
8893.00 3.0570e-17 
8894.50 2.9499e-17 
8896.00 2.8546e-17 
8897.50 2.9293e-17 
8899.00 3.0915e-17 
8900.50 2.9730e-17 
8902.00 2.9099e-17 
8903.50 3.0275e-17 
8905.00 2.9954e-17 
8906.50 3.1509e-17 
8908.00 3.0360e-17 
8909.50 2.9050e-17 
8911.00 2.8295e-17 
8912.50 2.9219e-17 
8914.00 3.0057e-17 
8915.50 2.9594e-17 
8917.00 2.9360e-17 
8918.50 2.8411e-17 
8920.00 2.9078e-17 
8921.50 2.9367e-17 
8923.00 3.0615e-17 
8924.50 2.9762e-17 
8926.00 2.9247e-17 
8927.50 2.9105e-17 
8929.00 2.9743e-17 
8930.50 2.8363e-17 
8932.00 2.8450e-17 
8933.50 2.8682e-17 
8935.00 2.7999e-17 
8936.50 2.8855e-17 
8938.00 3.0315e-17 
8939.50 3.1976e-17 
8941.00 3.1346e-17 
8942.50 3.0171e-17 
8944.00 2.9232e-17 
8945.50 3.0005e-17 
8947.00 2.9849e-17 
8948.50 2.9085e-17 
8950.00 3.0473e-17 
8951.50 2.9665e-17 
8953.00 3.0087e-17 
8954.50 2.9619e-17 
8956.00 2.9266e-17 
8957.50 3.0940e-17 
8959.00 3.0172e-17 
8960.50 2.8404e-17 
8962.00 2.7877e-17 
8963.50 2.8172e-17 
8965.00 2.9654e-17 
8966.50 2.8762e-17 
8968.00 2.9415e-17 
8969.50 2.8274e-17 
8971.00 2.7371e-17 
8972.50 2.7620e-17 
8974.00 2.7104e-17 
8975.50 2.7737e-17 
8977.00 3.0103e-17 
8978.50 2.9998e-17 
8980.00 2.8650e-17 
8981.50 2.8134e-17 
8983.00 2.8855e-17 
8984.50 2.8293e-17 
8986.00 2.8816e-17 
8987.50 2.7686e-17 
8989.00 2.7117e-17 
8990.50 2.5104e-17 
8992.00 2.5716e-17 
8993.50 2.6723e-17 
8995.00 2.8408e-17 
8996.50 2.9417e-17 
8998.00 3.1009e-17 
8999.50 2.9578e-17 
9001.00 2.8998e-17 
9002.50 2.8003e-17 
9004.00 2.8236e-17 
9005.50 2.9048e-17 
9007.00 2.9685e-17 
9008.50 2.9085e-17 
9010.00 3.0254e-17 
9011.50 2.8524e-17 
9013.00 2.8744e-17 
9014.50 2.9302e-17 
9016.00 2.9642e-17 
9017.50 2.9052e-17 
9019.00 2.8553e-17 
9020.50 2.7699e-17 
9022.00 2.7654e-17 
9023.50 2.6645e-17 
9025.00 2.7370e-17 
9026.50 2.8348e-17 
9028.00 2.7773e-17 
9029.50 2.8529e-17 
9031.00 3.0105e-17 
9032.50 3.0484e-17 
9034.00 2.9197e-17 
9035.50 2.8983e-17 
9037.00 2.9655e-17 
9038.50 2.9811e-17 
9040.00 3.0288e-17 
9041.50 2.9462e-17 
9043.00 2.9998e-17 
9044.50 2.9602e-17 
9046.00 3.0245e-17 
9047.50 2.9623e-17 
9049.00 2.9137e-17 
9050.50 3.1288e-17 
9052.00 3.0232e-17 
9053.50 2.9488e-17 
9055.00 2.8843e-17 
9056.50 2.8814e-17 
9058.00 2.9274e-17 
9059.50 2.9249e-17 
9061.00 2.9635e-17 
9062.50 2.9165e-17 
9064.00 2.8499e-17 
9065.50 2.8553e-17 
9067.00 2.9061e-17 
9068.50 2.8465e-17 
9070.00 2.6977e-17 
9071.50 2.7701e-17 
9073.00 2.7241e-17 
9074.50 2.7621e-17 
9076.00 2.7641e-17 
9077.50 2.9608e-17 
9079.00 3.1065e-17 
9080.50 2.7873e-17 
9082.00 2.7410e-17 
9083.50 2.7847e-17 
9085.00 2.7341e-17 
9086.50 2.7189e-17 
9088.00 2.8138e-17 
9089.50 2.7441e-17 
9091.00 2.7602e-17 
9092.50 2.7511e-17 
9094.00 2.9427e-17 
9095.50 2.9286e-17 
9097.00 2.7852e-17 
9098.50 2.8257e-17 
9100.00 2.8664e-17 
9101.50 2.8317e-17 
9103.00 2.8424e-17 
9104.50 2.7851e-17 
9106.00 2.8708e-17 
9107.50 2.8193e-17 
9109.00 2.8032e-17 
9110.50 2.8640e-17 
9112.00 2.9037e-17 
9113.50 2.9092e-17 
9115.00 2.9804e-17 
9116.50 3.0575e-17 
9118.00 2.8584e-17 
9119.50 2.7974e-17 
9121.00 2.7957e-17 
9122.50 2.7876e-17 
9124.00 2.8631e-17 
9125.50 2.8073e-17 
9127.00 2.8014e-17 
9128.50 2.6705e-17 
9130.00 2.6139e-17 
9131.50 2.7326e-17 
9133.00 2.8014e-17 
9134.50 2.7026e-17 
9136.00 2.6817e-17 
9137.50 2.6653e-17 
9139.00 2.6046e-17 
9140.50 2.8159e-17 
9142.00 3.0099e-17 
9143.50 2.9505e-17 
9145.00 2.9400e-17 
9146.50 2.9001e-17 
9148.00 2.9533e-17 
9149.50 2.8278e-17 
9151.00 2.7005e-17 
9152.50 2.6196e-17 
9154.00 2.5663e-17 
9155.50 2.6385e-17 
9157.00 2.6433e-17 
9158.50 2.6938e-17 
9160.00 2.8740e-17 
9161.50 2.8809e-17 
9163.00 2.8409e-17 
9164.50 2.8404e-17 
9166.00 2.8355e-17 
9167.50 2.7409e-17 
9169.00 2.8566e-17 
9170.50 2.8674e-17 
9172.00 2.8145e-17 
9173.50 2.9335e-17 
9175.00 2.8152e-17 
9176.50 2.7023e-17 
9178.00 2.7595e-17 
9179.50 2.8147e-17 
9181.00 2.7789e-17 
9182.50 2.8155e-17 
9184.00 2.8655e-17 
9185.50 2.8295e-17 
9187.00 2.7871e-17 
9188.50 2.7305e-17 
9190.00 2.7514e-17 
9191.50 2.7499e-17 
9193.00 2.8374e-17 
9194.50 2.8294e-17 
9196.00 2.6599e-17 
9197.50 2.6479e-17 
9199.00 2.6154e-17 
9200.50 0
9202.00 0
9203.50 0
9205.00 0
9206.50 0
9208.00 0
9209.50 0
9211.00 0
9212.50 0
9214.00 0
9215.50 0
9217.00 0
9218.50 0
9220.00 0
9221.50 0
9223.00 0
9224.50 0
9226.00 0
9227.50 0
9229.00 0
9230.50 0
9232.00 0
9233.50 0
9235.00 0
9236.50 0
9238.00 0
9239.50 0
9241.00 0
9242.50 0
9244.00 0
9245.50 0
9247.00 0
9248.50 0
9250.00 0
9251.50 0
9253.00 0
9254.50 0
9256.00 0
9257.50 0
9259.00 0
9260.50 0
9262.00 0
9263.50 0
9265.00 0
9266.50 0
9268.00 0
9269.50 0
9271.00 0
9272.50 0
9274.00 0
9275.50 0
9277.00 0
9278.50 0
9280.00 0
9281.50 0
9283.00 0
9284.50 0
9286.00 0
9287.50 0
9289.00 0
9290.50 0
9292.00 0
9293.50 0
9295.00 0
9296.50 0
9298.00 0
9299.50 0
9301.00 0
9302.50 0
9304.00 0
9305.50 0
9307.00 0
9308.50 0
9310.00 0
9311.50 0
9313.00 0
9314.50 0
9316.00 0
9317.50 0
9319.00 0
9320.50 0
9322.00 0
9323.50 0
9325.00 0
9326.50 0
9328.00 0
9329.50 0
9331.00 0
9332.50 0
9334.00 0
9335.50 0
9337.00 0
9338.50 0
9340.00 0
9341.50 0
9343.00 0
9344.50 0
9346.00 0
9347.50 0
9349.00 0
9350.50 0
9352.00 0
9353.50 0
9355.00 0
9356.50 0
9358.00 0
9359.50 0
9361.00 0
9362.50 0
9364.00 0
9365.50 0
9367.00 0
9368.50 0
9370.00 0
9371.50 0
9373.00 0
9374.50 0
9376.00 0
9377.50 0
9379.00 0
9380.50 0
9382.00 0
9383.50 0
9385.00 0
9386.50 0
9388.00 0
9389.50 0
9391.00 0
9392.50 0
9394.00 0
9395.50 0
9397.00 0
9398.50 0
9400.00 0
9401.50 0
9403.00 0
9404.50 0
9406.00 0
9407.50 0
9409.00 0
9410.50 0
9412.00 0
9413.50 0
9415.00 0
9416.50 0
9418.00 0
9419.50 0
9421.00 0
9422.50 0
9424.00 0
9425.50 0
9427.00 0
9428.50 0
9430.00 0
9431.50 0
9433.00 0
9434.50 0
9436.00 0
9437.50 0
9439.00 0
9440.50 0
9442.00 0
9443.50 0
9445.00 0
9446.50 0
9448.00 0
9449.50 0
9451.00 0
9452.50 0
9454.00 0
9455.50 0
9457.00 0
9458.50 0
9460.00 0
9461.50 0
9463.00 0
9464.50 0
9466.00 0
9467.50 0
9469.00 0
9470.50 0
9472.00 0
9473.50 0
9475.00 0
9476.50 0
9478.00 0
9479.50 0
9481.00 0
9482.50 0
9484.00 0
9485.50 0
9487.00 0
9488.50 0
9490.00 0
9491.50 0
9493.00 0
9494.50 0
9496.00 0
9497.50 0
9499.00 0
